% f5513.txt
% Date Thu, Jun 24, 2021 9:32 PM
% Ascending Sine seq
% Response spectrum
% Stim level (V pk) 0.500, 0 dB filter gain, 120.0 dB attenuation
% Freq [Hz]	Ch0 Mag [dB]	Ch0 Phase [cyc]	Ch1 Mag [dB]	Ch1 Phase [cyc]	Ch2 Mag [dB]	Ch2 Phase [cyc]	Ch3 Mag [dB]	Ch3 Phase [cyc]
%%end
100.000000	-114.092582	0.375637	-112.824060	0.120560	-13.484461	-0.401554	-22.405523	-0.230234
200.000000	-134.673395	0.243557	-116.939774	0.198608	-6.954789	0.463458	-24.227218	-0.268323
300.000000	-106.327737	0.393632	-102.493856	-0.123658	-4.961548	0.410792	-24.639094	-0.253829
400.000000	-119.865349	-0.158868	-110.874601	-0.413167	-3.728602	0.377810	-24.654011	-0.244656
500.000000	-114.034251	-0.245027	-111.135475	-0.137466	-3.390121	0.355808	-24.549039	-0.238518
600.000000	-116.894183	0.113301	-117.693832	-0.379748	-3.127935	0.339997	-24.407040	-0.234988
700.000000	-114.801915	0.186287	-118.432061	0.433653	-2.959296	0.328490	-24.326235	-0.231770
800.000000	-113.805231	0.417891	-124.306625	0.416238	-2.792431	0.320814	-24.211915	-0.228311
900.000000	-116.725019	0.178042	-115.979922	0.433811	-2.655119	0.314708	-24.082620	-0.225782
1000.000000	-123.846380	0.416782	-107.823655	-0.460313	-2.529254	0.310739	-23.952597	-0.223697
1100.000001	-125.020540	-0.349754	-113.359126	0.407292	-2.430086	0.304946	-23.826265	-0.221976
1200.000001	-123.805819	-0.420369	-114.068631	0.391203	-2.337222	0.302443	-23.704257	-0.220510
1300.000001	-141.396278	-0.446882	-116.285813	0.433681	-2.207131	0.298610	-23.585964	-0.219249
1400.000001	-122.856242	0.484394	-113.937348	0.291131	-2.107030	0.295696	-23.466559	-0.218227
1500.000001	-123.274419	0.006218	-114.595214	0.340597	-1.992966	0.292983	-23.361795	-0.217489
1600.000001	-122.240101	-0.480831	-112.349851	-0.490917	-1.909592	0.290384	-23.262538	-0.216629
1700.000001	-115.955423	0.442245	-112.096943	0.349332	-1.805949	0.288153	-23.160967	-0.216008
1800.000001	-115.200630	0.265821	-117.544370	0.321879	-1.709973	0.285803	-23.065677	-0.215405
1900.000001	-126.118310	0.477577	-114.069494	0.332205	-1.628822	0.283648	-22.971496	-0.214912
2000.000001	-120.499491	0.463353	-117.004201	0.287396	-1.546971	0.281660	-22.880587	-0.214508
2100.000001	-128.653929	-0.055722	-119.804551	0.380835	-1.462604	0.279674	-22.792539	-0.214207
2200.000001	-118.156318	-0.420815	-111.150260	0.436115	-1.380567	0.277502	-22.709187	-0.213988
2300.000001	-122.298617	0.168217	-113.895848	0.234283	-1.304762	0.275483	-22.630986	-0.213803
2400.000001	-111.339092	0.365521	-108.856325	0.367765	-1.230802	0.273676	-22.554655	-0.213617
2500.000001	-120.287488	0.479646	-110.034529	0.415183	-1.161347	0.271837	-22.484798	-0.213498
2600.000001	-115.494157	0.337796	-110.850793	0.379717	-1.094472	0.270002	-22.413067	-0.213407
2700.000001	-124.480827	-0.328959	-113.817229	0.281758	-1.017963	0.268208	-22.342305	-0.213361
2800.000001	-122.439411	-0.376419	-109.470411	0.266282	-0.952869	0.266265	-22.274895	-0.213365
2900.000001	-110.741398	0.403864	-112.941889	0.307908	-0.892405	0.264556	-22.211197	-0.213386
3000.000001	-115.647636	0.431333	-114.982982	0.380675	-0.832980	0.262738	-22.150519	-0.213422
3100.000001	-128.242114	0.428230	-112.051416	0.325473	-0.763168	0.260889	-22.091331	-0.213466
3200.000001	-116.331784	-0.480125	-113.636581	0.274004	-0.714926	0.259157	-22.033547	-0.213530
3300.000002	-127.043800	0.356542	-114.175870	0.271387	-0.654880	0.257391	-21.977143	-0.213607
3400.000002	-114.824951	0.179368	-108.801591	0.189569	-0.596991	0.255641	-21.922800	-0.213719
3500.000002	-114.143085	0.199868	-113.940652	0.189244	-0.543528	0.253899	-21.870535	-0.213837
3600.000002	-117.278329	0.363460	-119.084820	0.423479	-0.491425	0.252169	-21.819326	-0.213969
3700.000002	-117.156180	0.317334	-115.717681	0.337670	-0.441786	0.250366	-21.770107	-0.214108
3800.000002	-121.301884	-0.449644	-112.346301	-0.485797	-0.389665	0.248672	-21.722155	-0.214261
3900.000002	-115.449625	-0.465983	-111.876716	0.413717	-0.345960	0.246927	-21.675602	-0.214426
4000.000002	-137.194116	0.351267	-125.987530	-0.436379	-0.299084	0.245142	-21.630014	-0.214589
4100.000002	-119.117373	0.418174	-116.610045	0.259385	-0.260524	0.243556	-21.585651	-0.214772
4200.000002	-122.235100	0.135266	-113.947866	0.171290	-0.215737	0.241778	-21.542708	-0.214961
4300.000002	-125.069298	-0.179793	-122.352307	0.020319	-0.176102	0.240112	-21.501063	-0.215157
4400.000002	-119.239424	0.408264	-118.229092	0.176844	-0.138980	0.238411	-21.461152	-0.215342
4500.000002	-115.747128	0.367525	-117.141058	0.256463	-0.101923	0.236727	-21.421609	-0.215552
4600.000002	-115.754188	-0.009913	-133.304125	-0.152938	-0.067016	0.235037	-21.383308	-0.215756
4700.000002	-113.189895	0.229603	-115.735207	0.242542	-0.031318	0.233468	-21.346278	-0.215970
4800.000002	-116.162375	0.286669	-123.439758	0.125595	0.003055	0.231805	-21.310079	-0.216177
4900.000002	-123.842447	0.394364	-131.334681	0.026966	0.034366	0.230102	-21.274367	-0.216391
5000.000002	-116.284836	0.075203	-117.268566	-0.088235	0.064282	0.228480	-21.239787	-0.216606
5100.000002	-120.524538	0.274327	-117.901714	-0.365378	0.091314	0.226809	-21.206047	-0.216828
5200.000002	-118.768790	0.238815	-118.003971	0.486753	0.122023	0.225181	-21.173276	-0.217050
5300.000002	-117.579345	0.232861	-123.120035	0.332475	0.147184	0.223555	-21.140521	-0.217276
5400.000002	-128.319798	0.159452	-118.847538	-0.475234	0.149230	0.221933	-21.129721	-0.217472
5500.000003	-116.031310	0.231505	-116.910480	-0.451772	0.057086	0.220623	-21.213197	-0.217497
5600.000003	-119.625630	-0.487161	-116.153359	0.485470	0.008006	0.219117	-21.259887	-0.217609
5700.000003	-119.199431	0.098847	-123.441307	-0.249960	0.058062	0.217841	-21.229043	-0.217885
5800.000003	-111.780457	0.295117	-123.081954	-0.241419	0.026193	0.216026	-21.211630	-0.218112
5900.000003	-118.780092	0.093831	-120.933361	0.371853	0.075208	0.214488	-21.179433	-0.218306
6000.000003	-116.016152	-0.005861	-121.837941	0.362448	0.101624	0.212838	-21.150272	-0.218540
6100.000003	-117.693455	0.250285	-120.039710	-0.461794	0.118675	0.211205	-21.130160	-0.218764
6200.000003	-124.674449	0.107445	-115.258156	-0.491117	0.134690	0.209680	-21.102792	-0.218999
6300.000003	-123.599891	0.403609	-118.966208	-0.336651	0.154256	0.208040	-21.075462	-0.219234
6400.000003	-121.510514	0.152752	-112.837373	-0.473214	0.176301	0.206622	-21.049904	-0.219475
6500.000003	-121.723438	0.132838	-119.063765	-0.420715	0.193777	0.204933	-21.025344	-0.219716
6600.000003	-129.932510	0.095249	-112.498302	-0.478093	0.211516	0.203266	-21.002914	-0.219936
6700.000003	-117.239331	0.305993	-111.088741	-0.444407	0.216736	0.201785	-20.980819	-0.220188
6800.000003	-114.207411	0.100317	-114.564338	-0.452354	0.240080	0.200277	-20.958497	-0.220426
7000.000003	-117.294620	0.030588	-116.851438	-0.390794	0.239961	0.197109	-20.915183	-0.220926
7100.000003	-116.747134	0.136447	-110.271726	-0.433538	0.264517	0.195497	-20.890266	-0.221157
7200.000003	-118.648424	0.266625	-112.670005	-0.432862	0.280217	0.194050	-20.866611	-0.221400
7300.000003	-124.969552	0.068695	-116.946489	-0.363086	0.296325	0.192314	-20.845048	-0.221640
7400.000003	-123.020616	0.004068	-109.485753	-0.487813	0.287186	0.190982	-20.825642	-0.221879
7500.000003	-121.962605	-0.207032	-110.239712	-0.365812	0.305776	0.189480	-20.805030	-0.222123
7700.000004	-121.365143	-0.051932	-107.665377	-0.385459	0.342477	0.185908	-20.761260	-0.222615
7800.000004	-116.205440	0.151600	-110.839499	-0.468638	0.311476	0.185524	-20.740515	-0.222860
7900.000004	-121.658537	0.271514	-106.638417	-0.454586	0.351048	0.183710	-20.719541	-0.223097
8100.000004	-116.829707	0.014612	-113.313701	-0.409073	0.370079	0.180618	-20.679654	-0.223579
8200.000004	-111.927470	0.415096	-107.226525	-0.418373	0.382603	0.179173	-20.659128	-0.223826
8300.000004	-121.690171	0.401329	-105.816134	-0.423887	0.400160	0.177600	-20.639385	-0.224069
8500.000004	-120.835912	0.291722	-105.995554	-0.441733	0.407725	0.174286	-20.601923	-0.224556
8600.000004	-117.484377	0.069280	-106.082090	-0.448418	0.414927	0.172871	-20.583655	-0.224793
8800.000004	-122.704245	-0.127802	-110.379547	-0.434947	0.421575	0.169860	-20.547876	-0.225273
8900.000004	-118.194466	0.264141	-106.763884	-0.458990	0.426365	0.168298	-20.530975	-0.225522
9100.000004	-115.454275	0.406505	-106.213962	-0.485227	0.428464	0.165180	-20.497895	-0.225999
9200.000004	-122.960070	-0.050250	-105.964768	-0.449745	0.431190	0.163725	-20.481778	-0.226243
9400.000004	-126.678982	0.149679	-104.537490	-0.445634	0.427629	0.160555	-20.449678	-0.226722
9500.000004	-120.904886	-0.234237	-105.899565	-0.469340	0.415068	0.159381	-20.434794	-0.226967
9700.000004	-124.334748	0.321856	-104.337209	-0.440714	0.423962	0.156346	-20.403822	-0.227442
9800.000005	-129.254572	-0.058593	-103.044558	-0.470705	0.422178	0.154871	-20.388952	-0.227680
10000.000005	-124.824982	-0.414619	-103.315822	-0.461247	0.417044	0.151907	-20.359420	-0.228155
10200.000005	-115.969686	0.488719	-103.317855	0.499288	0.408118	0.149229	-20.331311	-0.228634
10300.000005	-118.205541	-0.025191	-102.555888	-0.491455	0.410522	0.147628	-20.317637	-0.228870
10500.000005	-115.605355	0.345902	-102.430871	-0.496221	0.396927	0.144595	-20.290852	-0.229342
10700.000005	-114.587800	0.367508	-102.928722	-0.486008	0.386399	0.141773	-20.263165	-0.229817
10900.000005	-122.497939	0.174767	-102.223628	-0.473431	0.376513	0.138850	-20.236780	-0.230291
11000.000005	-117.703161	0.269273	-102.033339	0.497017	0.369827	0.137439	-20.224396	-0.230521
11200.000005	-120.029624	-0.213505	-103.006081	-0.485009	0.356639	0.134746	-20.198362	-0.230998
11400.000005	-125.521925	0.187681	-100.758364	0.499614	0.357923	0.131976	-20.174049	-0.231468
11600.000005	-127.080277	-0.324710	-102.140113	0.491786	0.332208	0.128989	-20.150048	-0.231936
11800.000005	-119.122200	0.423312	-99.405745	0.499031	0.314775	0.126122	-20.126359	-0.232403
12000.000006	-119.234557	0.257445	-100.317717	0.468779	0.300017	0.123402	-20.103809	-0.232875
12200.000006	-116.411099	0.314522	-100.123793	0.478506	0.289686	0.120536	-20.080771	-0.233335
12400.000006	-120.497171	0.407724	-100.380460	0.479213	0.262149	0.117580	-20.058901	-0.233798
12600.000006	-122.640393	0.219105	-99.294484	0.481659	0.240469	0.114766	-20.037433	-0.234260
12800.000006	-115.776248	-0.450427	-98.192672	0.481830	0.214124	0.111940	-20.017058	-0.234722
13000.000006	-121.693379	0.279403	-98.861796	0.460099	0.188448	0.109290	-19.996509	-0.235188
13200.000006	-115.011573	0.364933	-98.725258	0.469631	0.161956	0.106511	-19.975600	-0.235648
13400.000006	-112.180204	0.229107	-100.063512	0.449383	0.137735	0.103836	-19.957220	-0.236103
13700.000006	-120.623708	0.420044	-99.324670	0.455039	0.097543	0.099692	-19.928743	-0.236794
13900.000006	-122.944291	0.192270	-98.232736	0.484079	0.067665	0.096909	-19.910146	-0.237251
14100.000006	-116.387620	0.327675	-98.377880	0.443966	0.034902	0.094242	-19.891924	-0.237706
14400.000007	-118.950421	0.233632	-99.211108	0.448884	-0.017524	0.090242	-19.865352	-0.238386
14600.000007	-114.311540	0.256778	-97.784443	0.445214	-0.045767	0.087671	-19.848155	-0.238843
14800.000007	-109.595353	0.378412	-97.231319	0.441549	-0.078504	0.085011	-19.830447	-0.239302
15100.000007	-117.640832	0.304048	-96.991101	0.441177	-0.126934	0.081086	-19.805041	-0.239982
15300.000007	-115.320035	0.186704	-96.768438	0.414090	-0.160808	0.078469	-19.788036	-0.240434
15600.000007	-117.263135	0.392010	-97.042780	0.418591	-0.215727	0.074542	-19.763040	-0.241118
15900.000007	-112.330893	0.337487	-97.412176	0.416254	-0.272909	0.070640	-19.739191	-0.241796
16100.000007	-113.629123	0.296323	-97.142558	0.419981	-0.306002	0.068079	-19.722887	-0.242245
16400.000008	-117.632058	0.183251	-96.563153	0.412939	-0.364567	0.064225	-19.698927	-0.242922
16700.000008	-115.140577	0.191534	-95.563514	0.401034	-0.428511	0.060386	-19.676595	-0.243596
16900.000008	-122.306921	0.351991	-95.866132	0.413133	-0.466820	0.057847	-19.661512	-0.244046
17200.000008	-111.684269	0.251826	-95.823849	0.404346	-0.532862	0.054103	-19.639879	-0.244717
17500.000008	-117.535387	0.226349	-95.810494	0.392863	-0.595951	0.050437	-19.618610	-0.245392
17800.000008	-114.196920	0.245089	-94.641093	0.385397	-0.660554	0.046742	-19.598073	-0.246062
18100.000008	-116.534149	0.300759	-95.309086	0.385309	-0.727980	0.043079	-19.578004	-0.246730
18400.000008	-114.331822	0.361843	-94.600557	0.380478	-0.795869	0.039401	-19.556976	-0.247404
18700.000009	-114.108790	0.196751	-95.141658	0.378954	-0.862938	0.035743	-19.534757	-0.248076
19000.000009	-110.814098	0.152998	-94.540997	0.374184	-0.933592	0.032123	-19.513819	-0.248748
19300.000009	-115.008571	0.301505	-94.881426	0.369455	-1.009103	0.028551	-19.493954	-0.249424
19700.000009	-114.087616	0.148561	-94.465324	0.372650	-1.111554	0.023978	-19.468355	-0.250314
20000.000009	-121.697731	0.044362	-94.433293	0.365979	-1.180769	0.020626	-19.449716	-0.250983
