% f5647.txt
% Date Thu, Jun 24, 2021 9:38 PM
% Ascending Sine seq
% Response spectrum
% Stim level (V pk) 0.500, 0 dB filter gain, 120.0 dB attenuation
% Freq [Hz]	Ch0 Mag [dB]	Ch0 Phase [cyc]	Ch1 Mag [dB]	Ch1 Phase [cyc]	Ch2 Mag [dB]	Ch2 Phase [cyc]	Ch3 Mag [dB]	Ch3 Phase [cyc]
%%end
100.000000	-117.438796	-0.149780	-112.392961	-0.336069	-28.287598	-0.349403	-22.602038	-0.229944
200.000000	-115.762170	-0.075120	-116.973339	0.334124	-22.910532	0.496334	-24.424310	-0.268487
300.000000	-106.142867	-0.478990	-105.759248	-0.015762	-19.198170	0.491839	-24.838286	-0.253867
400.000000	-114.222350	-0.300513	-123.132119	-0.415417	-17.726040	0.450660	-24.853374	-0.244637
500.000000	-108.224328	0.250971	-116.093961	0.303945	-16.716611	0.423714	-24.750392	-0.238435
600.000000	-115.054996	0.444168	-116.514779	-0.109988	-16.149850	0.417182	-24.607350	-0.234920
700.000000	-115.868809	0.429401	-114.754136	0.223697	-15.162070	0.416031	-24.525874	-0.231685
800.000000	-120.547787	-0.099425	-120.409237	0.113854	-14.672926	0.409058	-24.409731	-0.228206
900.000000	-117.211771	-0.188727	-117.883820	-0.422804	-14.198292	0.402966	-24.278852	-0.225664
1000.000000	-115.445386	0.290342	-113.534027	-0.212779	-13.492382	0.398608	-24.149008	-0.223569
1100.000001	-120.334844	-0.318414	-130.336129	0.338246	-13.253025	0.395186	-24.022053	-0.221832
1200.000001	-128.495021	0.029028	-121.254975	-0.335501	-12.727567	0.394889	-23.900275	-0.220355
1300.000001	-125.300201	0.355362	-119.225048	-0.385364	-12.438422	0.392393	-23.781501	-0.219090
1400.000001	-119.907945	0.008755	-124.663014	-0.468300	-12.017068	0.390214	-23.662117	-0.218048
1500.000001	-120.681004	-0.314714	-115.506001	0.236396	-11.581409	0.389199	-23.557688	-0.217314
1600.000001	-121.635950	-0.140853	-128.731650	0.396160	-11.272824	0.386584	-23.458224	-0.216437
1700.000001	-123.202453	-0.401334	-129.958955	0.260257	-10.931838	0.384846	-23.356010	-0.215810
1800.000001	-118.381096	-0.398227	-114.759133	-0.453894	-10.639229	0.383069	-23.260606	-0.215198
1900.000001	-112.516208	-0.464343	-108.962873	0.497329	-10.312098	0.380799	-23.166062	-0.214703
2000.000001	-117.169905	-0.300080	-114.072879	-0.209456	-10.021549	0.379254	-23.074785	-0.214302
2100.000001	-113.112128	-0.239771	-118.715796	0.391821	-9.739787	0.377312	-22.986832	-0.213988
2200.000001	-128.517623	-0.380113	-125.264604	0.398345	-9.460932	0.374718	-22.903243	-0.213761
2300.000001	-120.831684	-0.401067	-123.153757	0.202081	-9.190373	0.373819	-22.824995	-0.213566
2400.000001	-114.982878	0.182507	-116.128037	0.137640	-8.981012	0.372102	-22.748142	-0.213378
2500.000001	-122.430647	-0.417320	-115.347007	0.420495	-8.729157	0.369465	-22.673632	-0.213262
2600.000001	-127.611550	0.269311	-123.747329	-0.099587	-8.460344	0.367065	-22.602162	-0.213163
2700.000001	-123.986324	-0.147057	-121.807346	0.452334	-8.254928	0.365065	-22.531672	-0.213113
2800.000001	-132.640375	0.116061	-118.436675	-0.484530	-8.038295	0.363180	-22.465144	-0.213113
2900.000001	-135.510565	-0.094686	-128.669241	0.283243	-7.848993	0.360541	-22.401292	-0.213133
3000.000001	-119.433914	0.198400	-116.268171	-0.472772	-7.631929	0.358396	-22.340393	-0.213167
3100.000001	-115.786621	-0.489717	-116.905314	-0.442820	-7.427114	0.356488	-22.281219	-0.213201
3200.000001	-115.657070	-0.424027	-119.776415	0.365290	-7.254794	0.354487	-22.223217	-0.213262
3300.000002	-117.367289	0.217164	-115.021180	-0.488735	-7.061291	0.352270	-22.167228	-0.213332
3400.000002	-121.223330	-0.309596	-126.182981	-0.247660	-6.889007	0.349769	-22.112776	-0.213446
3500.000002	-127.268487	0.442637	-126.870301	0.211918	-6.729029	0.347722	-22.060417	-0.213560
3600.000002	-114.018521	0.357142	-128.225237	0.389280	-6.549238	0.345404	-22.009614	-0.213696
3700.000002	-120.232380	0.005172	-121.962929	0.491957	-6.421635	0.342843	-21.960152	-0.213831
3800.000002	-122.080698	0.330742	-117.506805	-0.499978	-6.259545	0.340884	-21.911686	-0.213977
3900.000002	-126.563498	0.486249	-115.716879	-0.283530	-6.105390	0.338567	-21.865110	-0.214139
4000.000002	-136.414923	-0.153884	-120.451904	0.498246	-5.976686	0.335852	-21.819935	-0.214304
4100.000002	-130.195887	0.110350	-129.722465	-0.182000	-5.831708	0.333567	-21.775430	-0.214479
4200.000002	-118.754959	0.163109	-121.240825	-0.439573	-5.722706	0.331353	-21.732728	-0.214665
4300.000002	-119.330649	0.498012	-123.522681	0.043872	-5.590755	0.329514	-21.691236	-0.214862
4400.000002	-115.490869	0.290760	-122.823370	0.146274	-5.470241	0.327252	-21.651316	-0.215050
4500.000002	-117.793192	0.106692	-111.862950	0.238899	-5.370801	0.324544	-21.611524	-0.215253
4600.000002	-119.004624	0.142331	-125.956513	-0.389981	-5.246031	0.322341	-21.573168	-0.215452
4700.000002	-121.642346	-0.064601	-120.390690	0.224134	-5.152673	0.320252	-21.535796	-0.215665
4800.000002	-125.374343	0.291978	-120.324333	0.265815	-5.054023	0.318009	-21.499857	-0.215873
4900.000002	-119.712433	0.472304	-119.193798	0.083971	-4.946215	0.315702	-21.464497	-0.216079
5000.000002	-122.393812	0.256647	-121.678259	0.130635	-4.853729	0.313617	-21.429427	-0.216296
5100.000002	-116.608929	0.415408	-115.331569	0.250648	-4.754124	0.311209	-21.395906	-0.216513
5200.000002	-118.099549	0.205359	-122.951357	-0.177107	-4.669358	0.309041	-21.362851	-0.216734
5300.000002	-126.757325	0.419334	-117.489057	-0.197903	-4.576720	0.306915	-21.329932	-0.216958
5400.000002	-121.502992	0.337273	-118.994085	0.018906	-4.503936	0.304665	-21.298041	-0.217187
5500.000003	-123.888851	0.251457	-127.402211	0.354006	-4.417912	0.302484	-21.266730	-0.217407
5600.000003	-121.337464	0.254130	-119.953524	0.095994	-4.343853	0.300441	-21.235086	-0.217651
5700.000003	-118.281745	0.352127	-118.224607	0.030354	-4.269918	0.298366	-21.201783	-0.217927
5800.000003	-117.440559	0.111626	-110.958228	-0.188382	-4.177063	0.296345	-21.183973	-0.218158
5900.000003	-113.810138	0.245536	-118.262865	-0.386560	-4.106791	0.294058	-21.152778	-0.218353
6000.000003	-128.009943	0.299335	-114.764274	-0.338052	-4.036807	0.291948	-21.123513	-0.218588
6100.000003	-127.388811	0.349980	-116.070748	-0.402032	-3.980730	0.289702	-21.096427	-0.218821
6200.000003	-120.585710	0.146111	-116.185263	-0.425229	-3.904825	0.287923	-21.069812	-0.219056
6300.000003	-122.860259	0.217975	-115.899122	-0.453548	-3.835873	0.285647	-21.043225	-0.219292
6400.000003	-121.932134	0.123741	-115.529382	-0.148537	-3.774714	0.283526	-21.017439	-0.219531
6500.000003	-118.988402	0.100770	-120.902230	-0.230211	-3.712315	0.281459	-20.992212	-0.219772
6600.000003	-119.100076	0.259900	-111.211705	-0.259514	-3.655402	0.279400	-20.968002	-0.219996
6700.000003	-118.056341	-0.418517	-116.809478	-0.352672	-3.591963	0.277089	-20.943397	-0.220253
6800.000003	-117.365673	-0.214191	-110.358615	-0.307595	-3.531375	0.274900	-20.919084	-0.220497
7000.000003	-124.218240	0.164038	-120.275360	-0.408646	-3.512924	0.270934	-20.875538	-0.220998
7100.000003	-115.914502	0.091782	-114.289587	-0.336909	-3.424456	0.269430	-20.851658	-0.221224
7200.000003	-119.732137	-0.119076	-108.749629	-0.341446	-3.358898	0.267244	-20.829315	-0.221464
7300.000003	-122.329241	-0.271327	-111.678279	-0.228096	-3.318113	0.264987	-20.807289	-0.221706
7400.000003	-119.610196	0.181674	-108.024320	-0.300767	-3.284263	0.263553	-20.786174	-0.221952
7500.000003	-118.726889	-0.491528	-118.228460	-0.333665	-3.228239	0.261653	-20.764816	-0.222195
7700.000004	-128.521733	-0.248922	-113.557283	-0.331443	-3.168894	0.256538	-20.722839	-0.222682
7800.000004	-117.824386	-0.185447	-113.860590	-0.252234	-3.093231	0.257248	-20.703935	-0.222922
7900.000004	-116.835804	0.307877	-107.705514	-0.336088	-3.023151	0.254087	-20.684049	-0.223163
8100.000004	-124.812441	-0.344551	-111.142320	-0.353309	-2.955528	0.249682	-20.645077	-0.223641
8200.000004	-119.590477	0.348030	-112.319798	-0.365237	-2.918249	0.247859	-20.626257	-0.223884
8300.000004	-116.086715	0.347923	-111.453231	-0.378189	-2.880120	0.245731	-20.607946	-0.224127
8500.000004	-120.120854	0.146512	-107.453902	-0.331001	-2.830576	0.241560	-20.571688	-0.224611
8600.000004	-126.092298	-0.167295	-109.735974	-0.354259	-2.809423	0.239908	-20.553850	-0.224853
8800.000004	-133.682416	0.440149	-111.552092	-0.339317	-2.748046	0.235996	-20.518678	-0.225328
8900.000004	-123.025065	-0.158074	-108.034452	-0.358689	-2.719165	0.234081	-20.502006	-0.225572
9100.000004	-126.520217	0.289436	-106.694787	-0.358847	-2.674352	0.230303	-20.468589	-0.226056
9200.000004	-119.881087	0.473797	-110.060532	-0.391552	-2.653455	0.228491	-20.452499	-0.226298
9400.000004	-114.523770	0.082510	-109.988700	-0.423737	-2.622848	0.224715	-20.420738	-0.226779
9500.000004	-117.285955	-0.439220	-106.245092	-0.377641	-2.605074	0.223638	-20.405355	-0.227021
9700.000004	-117.665370	0.254735	-107.889368	-0.364837	-2.560451	0.219630	-20.374660	-0.227497
9800.000005	-115.308530	0.047509	-106.068466	-0.449197	-2.547684	0.217877	-20.359621	-0.227735
10000.000005	-119.667300	0.172561	-106.920789	-0.413973	-2.511586	0.214272	-20.330413	-0.228212
10200.000005	-133.090997	-0.334679	-104.886779	-0.392589	-2.480315	0.211054	-20.301512	-0.228690
10300.000005	-116.594259	0.244008	-104.910019	-0.412014	-2.458149	0.209157	-20.287271	-0.228930
10500.000005	-124.206117	-0.018354	-104.570464	-0.411899	-2.439033	0.205508	-20.259633	-0.229402
10700.000005	-128.607494	-0.372461	-103.946367	-0.447507	-2.409271	0.202085	-20.232785	-0.229874
10900.000005	-116.389393	0.160169	-107.557152	-0.407373	-2.382902	0.198846	-20.206434	-0.230350
11000.000005	-122.653001	0.309556	-105.509871	-0.443069	-2.371754	0.197074	-20.193910	-0.230583
11200.000005	-124.332651	0.365915	-103.303231	-0.436653	-2.348506	0.193944	-20.168088	-0.231056
11400.000005	-128.437255	-0.118998	-103.306703	-0.403707	-2.317435	0.190607	-20.143327	-0.231528
11600.000005	-124.349342	-0.434254	-102.423236	-0.439650	-2.313237	0.186949	-20.119154	-0.231996
11800.000005	-124.734992	-0.192192	-104.217613	-0.471310	-2.297492	0.183649	-20.095239	-0.232463
12000.000006	-115.912322	0.273677	-102.057038	-0.433622	-2.291824	0.180241	-20.072490	-0.232936
12200.000006	-126.282694	-0.065145	-102.494187	-0.457924	-2.284814	0.176992	-20.049331	-0.233397
12400.000006	-117.053064	0.433256	-101.098769	-0.481061	-2.280074	0.173815	-20.027327	-0.233866
12600.000006	-115.874980	0.362575	-101.767964	-0.480525	-2.267424	0.170694	-20.005283	-0.234329
12800.000006	-118.487115	0.290225	-103.290476	-0.487406	-2.271687	0.167554	-19.984401	-0.234787
13000.000006	-129.757680	-0.009344	-101.122546	-0.485541	-2.265382	0.164266	-19.963589	-0.235250
13200.000006	-116.198690	0.278010	-101.017999	-0.483448	-2.269151	0.161075	-19.942044	-0.235717
13400.000006	-117.148432	0.128153	-100.564103	-0.487071	-2.270063	0.157960	-19.923119	-0.236172
13700.000006	-129.562927	-0.091583	-100.549196	-0.492691	-2.281352	0.153267	-19.894129	-0.236862
13900.000006	-116.584487	0.288310	-100.141518	-0.491723	-2.288526	0.150186	-19.874643	-0.237324
14100.000006	-120.098814	0.318089	-99.510218	-0.489954	-2.302530	0.147184	-19.855908	-0.237781
14400.000007	-120.187329	-0.321231	-101.088898	0.495434	-2.317433	0.142881	-19.828166	-0.238465
14600.000007	-117.704158	0.012382	-100.941640	0.496600	-2.320727	0.139748	-19.810540	-0.238924
14800.000007	-115.297950	0.477684	-98.304727	0.491533	-2.330978	0.136804	-19.793207	-0.239383
15100.000007	-113.531597	0.201612	-99.809117	0.472769	-2.348523	0.132304	-19.767314	-0.240062
15300.000007	-116.616671	0.208141	-99.151447	0.478779	-2.364872	0.129391	-19.750360	-0.240515
15600.000007	-131.643866	-0.037893	-98.904231	0.492328	-2.390008	0.124987	-19.725883	-0.241196
15900.000007	-121.746007	-0.336888	-98.604953	0.483623	-2.415511	0.120675	-19.702380	-0.241871
16100.000007	-124.733244	0.450226	-97.682806	0.478264	-2.438130	0.117752	-19.686554	-0.242320
16400.000008	-114.163904	0.326937	-98.338324	0.458617	-2.473571	0.113540	-19.663800	-0.242996
16700.000008	-122.420962	0.444230	-98.483608	0.455426	-2.504825	0.109317	-19.641719	-0.243671
16900.000008	-124.179345	-0.158123	-97.586448	0.457898	-2.529180	0.106508	-19.627451	-0.244120
17200.000008	-114.865479	0.249581	-96.772752	0.438630	-2.567254	0.102385	-19.605741	-0.244791
17500.000008	-118.138172	0.150829	-96.250243	0.449204	-2.607352	0.098217	-19.585200	-0.245465
17800.000008	-119.008976	0.015441	-96.905558	0.442875	-2.651080	0.094168	-19.564787	-0.246133
18100.000008	-125.738053	0.326510	-96.919801	0.441840	-2.691731	0.090137	-19.544656	-0.246803
18400.000008	-116.585480	0.412634	-96.324600	0.431884	-2.736877	0.086096	-19.523907	-0.247477
18700.000009	-115.012417	0.353884	-96.246463	0.424358	-2.784396	0.082051	-19.504117	-0.248148
19000.000009	-112.190948	0.189457	-96.340690	0.417163	-2.833668	0.078109	-19.485010	-0.248819
19300.000009	-123.005665	0.254842	-96.221122	0.413387	-2.891994	0.074167	-19.468055	-0.249482
19700.000009	-112.760078	0.307255	-95.336897	0.403374	-2.971140	0.069216	-19.444620	-0.250373
20000.000009	-118.435680	0.350014	-95.686993	0.401792	-3.015450	0.065610	-19.427257	-0.251033
