% f1493.txt
% Date Thu, Jun 24, 2021 6:31 PM
% Ascending Sine seq
% Response spectrum
% Stim level (V pk) 0.500, 0 dB filter gain, 120.0 dB attenuation
% Freq [Hz]	Ch0 Mag [dB]	Ch0 Phase [cyc]	Ch1 Mag [dB]	Ch1 Phase [cyc]	Ch2 Mag [dB]	Ch2 Phase [cyc]	Ch3 Mag [dB]	Ch3 Phase [cyc]
%%end
100.000000	7.648690	0.166013	-130.091963	0.240666	-13.812691	0.471688	-23.133016	-0.268097
200.000000	-4.371519	0.008196	-117.148152	0.244765	-2.005228	-0.447746	-25.367661	-0.254986
300.000000	-6.493092	-0.013319	-108.668380	0.311170	2.568942	0.494199	-25.366688	-0.245776
400.000000	-9.355057	-0.033232	-117.875954	-0.415372	4.964160	0.447882	-25.286444	-0.239379
500.000000	-15.546402	-0.047287	-110.844474	-0.464085	6.124030	0.421113	-25.168385	-0.234774
600.000000	-13.312973	-0.040890	-107.080783	-0.461752	6.853888	0.400925	-25.031526	-0.231460
700.000000	-14.273069	-0.061026	-111.201273	-0.392875	7.471952	0.391190	-24.916517	-0.228648
800.000000	-15.967527	-0.080908	-107.388226	-0.428951	7.985459	0.379457	-24.792284	-0.225978
900.000000	-17.254706	-0.090575	-106.349642	-0.442832	8.307189	0.370860	-24.663038	-0.223846
1000.000000	-17.946058	-0.097750	-104.667734	-0.449600	8.776597	0.363558	-24.536415	-0.222027
1100.000001	-21.669081	-0.111850	-103.902452	-0.471898	8.980604	0.356710	-24.413923	-0.220485
1200.000001	-20.083538	-0.118456	-106.229368	-0.463225	9.313125	0.352805	-24.295467	-0.219154
1300.000001	-21.275937	-0.133159	-102.857235	0.480406	9.639897	0.345581	-24.180258	-0.218013
1400.000001	-22.004531	-0.131163	-101.952574	0.470220	9.763050	0.339786	-24.066970	-0.217042
1500.000001	-22.265782	-0.137225	-103.075103	0.470427	9.927839	0.336363	-23.959931	-0.216250
1600.000001	-23.051639	-0.150215	-103.118439	0.444185	10.140491	0.331449	-23.857916	-0.215510
1700.000001	-23.425600	-0.157506	-102.036922	0.457254	10.186119	0.328376	-23.757198	-0.214906
1800.000001	-26.595959	-0.169950	-102.350557	0.424656	10.344679	0.326351	-23.661706	-0.214373
1900.000001	-24.588104	-0.178151	-101.653836	0.426701	10.512694	0.324066	-23.568696	-0.213928
2000.000001	-25.202655	-0.185318	-102.758677	0.410302	10.696493	0.321734	-23.478799	-0.213559
2100.000001	-25.783652	-0.192749	-100.670789	0.434433	10.883114	0.318477	-23.392049	-0.213266
2200.000001	-26.282163	-0.198034	-102.046306	0.396364	10.988725	0.315035	-23.309009	-0.213033
2300.000001	-28.432483	-0.217302	-101.166897	0.443449	11.086876	0.312669	-23.228653	-0.212841
2400.000001	-26.993843	-0.213077	-100.851354	0.416547	11.188173	0.310554	-23.151690	-0.212692
2500.000001	-27.233439	-0.224048	-101.231069	0.403339	11.283889	0.308925	-23.077305	-0.212580
2600.000001	-27.810146	-0.231409	-101.159409	0.394845	11.422970	0.307417	-23.005366	-0.212504
2700.000001	-28.503623	-0.238885	-100.992045	0.374654	11.558849	0.305004	-22.936499	-0.212461
2800.000001	-30.241744	-0.245209	-102.495115	0.359456	11.654514	0.302738	-22.869749	-0.212450
2900.000001	-28.866510	-0.260933	-100.866174	0.379574	11.751327	0.300958	-22.805093	-0.212467
3000.000001	-29.898471	-0.264503	-102.744519	0.373146	11.837837	0.299166	-22.742782	-0.212501
3100.000001	-29.866469	-0.265678	-102.357391	0.385568	11.935731	0.297601	-22.682261	-0.212548
3200.000001	-30.198814	-0.277231	-101.712656	0.369704	12.037925	0.296091	-22.623589	-0.212622
3300.000002	-30.547888	-0.276941	-103.332492	0.406535	12.138387	0.294647	-22.566813	-0.212718
3400.000002	-30.761740	-0.285433	-101.250348	0.355275	12.259460	0.293237	-22.512024	-0.212816
3500.000002	-30.975257	-0.283740	-103.491124	0.338890	12.376043	0.291170	-22.459185	-0.212937
3600.000002	-30.824234	-0.295996	-102.648760	0.382276	12.461661	0.289445	-22.407394	-0.213066
3700.000002	-31.205946	-0.301094	-104.623135	0.351719	12.556044	0.287916	-22.357673	-0.213211
3800.000002	-40.375166	-0.336378	-104.289062	0.381626	12.642236	0.286504	-22.308512	-0.213365
3900.000002	-32.294980	-0.321486	-104.303670	0.363985	12.724887	0.285505	-22.260488	-0.213531
4000.000002	-32.216105	-0.324150	-105.788430	0.413898	12.828314	0.285107	-22.214354	-0.213705
4100.000002	-32.307673	-0.328980	-106.063960	0.422985	12.983973	0.285328	-22.169382	-0.213897
4200.000002	-32.619162	-0.324158	-107.317763	0.429278	13.249728	0.285544	-22.125413	-0.214105
4300.000002	-33.002503	-0.318672	-106.724573	0.395621	13.637010	0.283865	-22.082921	-0.214339
4400.000002	-32.602139	-0.311853	-107.409751	0.413121	14.070714	0.278898	-22.042177	-0.214602
4500.000002	-31.072667	-0.313702	-106.398496	0.418481	14.405463	0.268378	-22.007028	-0.214871
4600.000002	-30.372790	-0.337643	-107.685876	0.490667	14.316083	0.256996	-21.973648	-0.215057
4700.000002	-30.436436	-0.354513	-109.943972	0.451164	14.012474	0.250676	-21.938012	-0.215198
4800.000002	-30.556874	-0.371106	-107.250302	0.451680	13.774806	0.248277	-21.902148	-0.215367
4900.000002	-30.675527	-0.389605	-105.413815	0.491578	13.607801	0.247245	-21.866350	-0.215539
5000.000002	-34.148525	-0.387736	-110.960773	0.485131	13.525151	0.247052	-21.830731	-0.215727
5100.000002	-41.652680	-0.164859	-109.675129	-0.444272	13.498245	0.246561	-21.795081	-0.215929
5200.000002	-53.835700	0.088191	-105.625244	-0.480363	13.500735	0.245931	-21.761076	-0.216144
5300.000002	-38.753198	-0.426987	-103.668163	-0.443347	13.519635	0.245209	-21.728021	-0.216359
5400.000002	-44.238088	-0.480956	-103.201960	-0.415505	13.552433	0.244343	-21.695554	-0.216580
5500.000003	-36.395239	-0.499531	-104.005090	-0.415177	13.596537	0.243276	-21.663660	-0.216795
5600.000003	-31.851955	-0.452092	-103.752151	-0.396452	13.647268	0.242047	-21.631514	-0.217043
5700.000003	-33.492100	-0.479202	-101.256054	-0.410908	13.712683	0.240514	-21.598330	-0.217307
5800.000003	-32.194604	-0.482940	-101.173554	-0.368627	13.771249	0.238835	-21.579568	-0.217568
5900.000003	-33.155206	0.492150	-101.178174	-0.356694	13.830789	0.236384	-21.547155	-0.217749
6000.000003	-32.961367	-0.488992	-98.656616	-0.402354	13.846599	0.233923	-21.518381	-0.217978
6100.000003	-32.314271	0.487687	-99.166200	-0.395983	13.839223	0.231902	-21.490692	-0.218201
6200.000003	-34.036898	0.476686	-98.705946	-0.398179	13.833398	0.230325	-21.463224	-0.218430
6300.000003	-33.016293	-0.490539	-99.094294	-0.399440	13.838078	0.229004	-21.436401	-0.218663
6400.000003	-33.362416	0.462961	-98.137168	-0.384215	13.856661	0.227828	-21.409965	-0.218896
6500.000003	-35.991250	0.480509	-96.994738	-0.400358	13.885276	0.226613	-21.384131	-0.219135
6600.000003	-34.035447	0.439185	-97.545630	-0.394905	13.924524	0.225373	-21.359037	-0.219365
6700.000003	-34.075521	0.411932	-95.694273	-0.390926	13.976911	0.223982	-21.334223	-0.219612
6800.000003	-32.362089	0.450980	-95.599465	-0.378990	14.036725	0.222375	-21.309687	-0.219860
7000.000003	-30.789147	0.385191	-95.633960	-0.399168	14.165638	0.218027	-21.265243	-0.220426
7100.000003	-30.733244	0.359225	-94.734775	-0.404941	14.223596	0.215219	-21.242749	-0.220605
7200.000003	-31.475182	0.324779	-93.481703	-0.395924	14.230685	0.211773	-21.219702	-0.220839
7300.000003	-32.927521	0.301485	-93.909504	-0.400594	14.170764	0.209001	-21.197766	-0.221072
7400.000003	-33.913562	0.280637	-94.198254	-0.407494	14.156976	0.207246	-21.176431	-0.221308
7500.000003	-36.037052	0.246813	-93.073580	-0.410690	14.135279	0.204825	-21.154724	-0.221539
7700.000004	-38.781732	0.360222	-92.902901	-0.412303	14.032870	0.200993	-21.112719	-0.222013
7800.000004	-37.716285	0.346735	-92.886220	-0.408294	13.974875	0.199662	-21.093449	-0.222255
7900.000004	-37.658178	0.338813	-92.604527	-0.419715	13.934218	0.198639	-21.073168	-0.222479
8100.000004	-37.410342	0.338313	-91.788666	-0.412533	13.872123	0.197105	-21.033753	-0.222952
8200.000004	-37.133365	0.338355	-91.414772	-0.421304	13.876288	0.196456	-21.014374	-0.223191
8300.000004	-37.064509	0.342832	-91.232262	-0.422446	13.890459	0.195674	-20.995235	-0.223428
8500.000004	-36.572120	0.317875	-91.025684	-0.424398	13.926938	0.193547	-20.958278	-0.223906
8600.000004	-38.904952	0.323740	-90.966647	-0.423058	13.942318	0.192304	-20.940170	-0.224147
8800.000004	-36.588446	0.327532	-90.337922	-0.423164	13.962215	0.189672	-20.905028	-0.224626
8900.000004	-35.235035	0.315010	-90.113482	-0.423288	13.968994	0.188333	-20.887970	-0.224864
9100.000004	-34.284478	0.307548	-89.513621	-0.425836	13.970171	0.185759	-20.853867	-0.225343
9200.000004	-34.239087	0.294729	-89.441383	-0.432948	13.973279	0.184576	-20.836752	-0.225580
9400.000004	-33.555292	0.284451	-88.751508	-0.433568	13.983929	0.182315	-20.804363	-0.226059
9500.000004	-33.570639	0.284678	-88.554917	-0.428849	13.997147	0.181136	-20.788463	-0.226303
9700.000004	-32.519858	0.264549	-88.605778	-0.439572	14.028815	0.178780	-20.757223	-0.226772
9800.000005	-32.147902	0.260366	-87.825526	-0.436483	14.040991	0.177502	-20.741775	-0.227007
10000.000005	-30.771650	0.246025	-87.447493	-0.439864	14.058034	0.174898	-20.711669	-0.227482
10200.000005	-29.421095	0.230516	-87.227505	-0.443196	14.070686	0.172339	-20.682011	-0.227961
10300.000005	-28.927063	0.221441	-87.145834	-0.446822	14.075765	0.171055	-20.667828	-0.228199
10500.000005	-27.527423	0.198593	-86.653143	-0.443967	14.073849	0.168704	-20.639458	-0.228676
10700.000005	-25.790457	0.179298	-86.263682	-0.451846	14.068619	0.166828	-20.611426	-0.229148
10900.000005	-23.511360	0.152530	-85.997098	-0.458675	14.075244	0.165610	-20.583813	-0.229626
11000.000005	-22.288078	0.134485	-85.938073	-0.453976	14.085125	0.165480	-20.569895	-0.229873
11200.000005	-18.773326	0.086524	-85.654437	-0.453262	14.191790	0.166600	-20.543291	-0.230387
11400.000005	-15.353575	-0.024477	-84.788266	-0.460514	14.784511	0.165687	-20.520347	-0.230971
11600.000005	-18.908038	-0.184305	-84.238509	-0.473144	15.103731	0.148259	-20.505209	-0.231393
11800.000005	-23.047616	-0.263369	-84.426565	-0.478963	14.726497	0.143001	-20.480877	-0.231758
12000.000006	-24.670993	-0.311961	-84.368967	-0.483911	14.537739	0.140619	-20.455686	-0.232187
12200.000006	-28.025522	-0.344615	-84.056353	-0.484454	14.446421	0.138184	-20.431394	-0.232638
12400.000006	-29.318663	-0.367281	-84.075642	-0.492983	14.389907	0.135633	-20.408550	-0.233095
12600.000006	-29.996057	-0.380417	-83.762831	-0.493541	14.350105	0.133019	-20.386088	-0.233555
12800.000006	-31.950249	-0.410597	-83.583589	-0.494637	14.318634	0.130350	-20.364153	-0.234016
13000.000006	-32.842691	-0.408921	-83.547994	-0.497156	14.291016	0.127643	-20.342749	-0.234469
13200.000006	-35.349310	-0.418040	-83.062070	0.495463	14.267111	0.124992	-20.321719	-0.234935
13400.000006	-36.350909	-0.412367	-82.981368	0.491054	14.266001	0.122100	-20.301751	-0.235389
13700.000006	-35.892223	-0.447418	-82.840900	0.489362	14.195799	0.116912	-20.272017	-0.236071
13900.000006	-37.160593	-0.437390	-82.449389	0.487704	14.111253	0.113992	-20.252473	-0.236524
14100.000006	-37.132694	-0.445736	-82.492077	0.484340	13.993912	0.112394	-20.233570	-0.236980
14400.000007	-36.124405	-0.481278	-81.997694	0.479647	14.033022	0.110731	-20.206197	-0.237664
14600.000007	-36.922088	0.495681	-81.910059	0.475822	14.060465	0.107994	-20.188036	-0.238118
14800.000007	-36.831367	0.435256	-81.869314	0.475379	14.061029	0.105139	-20.170437	-0.238570
15100.000007	-37.508541	0.419254	-81.580714	0.469731	14.044792	0.100889	-20.143917	-0.239243
15300.000007	-38.680477	0.424041	-81.503564	0.465054	14.027925	0.098114	-20.126445	-0.239696
15600.000007	-39.615864	0.379829	-81.120389	0.460178	13.995167	0.094011	-20.101945	-0.240370
15900.000007	-39.823285	0.363745	-81.064692	0.455360	13.959762	0.089989	-20.077246	-0.241043
16100.000007	-41.805031	0.328348	-80.799357	0.453744	13.933226	0.087343	-20.061561	-0.241493
16400.000008	-41.792095	0.327564	-80.626725	0.449714	13.897534	0.083381	-20.038349	-0.242163
16700.000008	-42.270757	0.183022	-80.299667	0.444819	13.863249	0.079473	-20.015891	-0.242834
16900.000008	-39.869541	0.304611	-80.288576	0.441107	13.841092	0.076814	-20.001145	-0.243278
17200.000008	-42.109934	0.254611	-80.074458	0.438444	13.808824	0.072804	-19.979249	-0.243948
17500.000008	-42.070274	0.263978	-79.924785	0.430883	13.770612	0.068729	-19.957742	-0.244614
17800.000008	-42.089809	0.236769	-79.849732	0.428819	13.733131	0.064595	-19.936674	-0.245277
18100.000008	-41.773583	0.169934	-79.658391	0.421986	13.687160	0.060387	-19.916237	-0.245946
18400.000008	-41.662536	0.085757	-79.374824	0.417792	13.634874	0.056153	-19.896337	-0.246613
18700.000009	-46.156755	0.180121	-79.320491	0.411765	13.578807	0.051905	-19.876911	-0.247273
19000.000009	-44.228442	0.130545	-79.160196	0.409187	13.514617	0.047402	-19.858341	-0.247938
19300.000009	-46.970236	0.141955	-79.151809	0.408254	13.408320	0.042674	-19.839446	-0.248604
19700.000009	-47.146226	0.038215	-79.024395	0.400888	13.210574	0.038813	-19.815303	-0.249484
20000.000009	-46.108481	0.078879	-79.024647	0.399723	13.171852	0.036089	-19.797774	-0.250148
