% f2163.txt
% Date Thu, Jun 24, 2021 6:57 PM
% Ascending Sine seq
% Response spectrum
% Stim level (V pk) 0.500, 0 dB filter gain, 120.0 dB attenuation
% Freq [Hz]	Ch0 Mag [dB]	Ch0 Phase [cyc]	Ch1 Mag [dB]	Ch1 Phase [cyc]	Ch2 Mag [dB]	Ch2 Phase [cyc]	Ch3 Mag [dB]	Ch3 Phase [cyc]
%%end
100.000000	9.455077	0.166655	-124.550140	0.015987	-15.828186	0.151975	-23.051796	-0.267966
200.000000	-1.715189	0.009450	-112.643137	-0.279360	-7.978330	-0.473119	-25.284999	-0.254997
300.000000	-6.335024	-0.013991	-106.412105	-0.028387	-4.203653	-0.482973	-25.285832	-0.245809
400.000000	-9.258884	-0.033064	-130.968967	0.066030	-2.102646	0.465058	-25.203463	-0.239397
500.000000	-11.469116	-0.044486	-124.127732	-0.475641	0.674212	0.425198	-24.716221	-0.234926
600.000000	-12.815556	-0.041279	-120.232069	0.441289	0.893213	0.405440	-24.573190	-0.231655
700.000000	-13.790580	-0.061241	-107.831977	-0.407354	1.730454	0.406190	-24.460439	-0.228871
800.000000	-15.411667	-0.080462	-115.295478	-0.454451	2.479277	0.394974	-24.341073	-0.226235
900.000000	-16.794627	-0.090926	-111.181806	-0.388437	2.824057	0.393936	-24.227384	-0.224115
1000.000000	-17.506299	-0.097544	-107.650119	-0.447038	3.294504	0.381796	-24.093396	-0.222327
1100.000001	-18.681808	-0.109369	-108.033476	0.464720	3.491641	0.378730	-23.964069	-0.220812
1200.000001	-19.613493	-0.118721	-112.603905	0.440785	3.968662	0.374966	-23.829879	-0.219519
1300.000001	-20.501388	-0.127329	-109.033959	0.446706	4.127677	0.370437	-23.713957	-0.218394
1400.000001	-21.395234	-0.132245	-108.305711	0.471165	4.297997	0.371203	-23.609988	-0.217436
1500.000001	-21.811173	-0.137473	-109.306227	0.494719	4.634568	0.370942	-23.517248	-0.216653
1600.000001	-22.357040	-0.151307	-107.979900	0.494401	4.965393	0.372243	-23.416125	-0.215923
1700.000001	-22.972066	-0.157565	-108.289883	-0.498144	5.599419	0.370616	-23.312635	-0.215337
1800.000001	-23.530173	-0.169290	-108.914246	0.436523	6.013812	0.363535	-23.215519	-0.214820
1900.000001	-24.129375	-0.178543	-105.126259	0.479137	6.233326	0.356782	-23.120858	-0.214395
2000.000001	-24.746498	-0.186039	-106.641234	0.454692	6.282370	0.352654	-23.031160	-0.214042
2100.000001	-25.304962	-0.193256	-106.117407	0.350584	6.375002	0.350907	-22.944242	-0.213757
2200.000001	-25.748830	-0.198215	-105.567181	0.424278	6.524296	0.349942	-22.861520	-0.213534
2300.000001	-26.103824	-0.206281	-105.295787	0.447323	6.720096	0.348993	-22.782581	-0.213358
2400.000001	-26.396967	-0.213848	-108.088422	0.476963	6.986849	0.347976	-22.704521	-0.213222
2500.000001	-26.832148	-0.224111	-106.105106	0.428925	7.251227	0.344437	-22.631343	-0.213118
2600.000001	-27.308658	-0.232537	-106.579020	0.438153	7.415147	0.340305	-22.560411	-0.213052
2700.000001	-27.705985	-0.239579	-107.604123	0.377594	7.501197	0.336857	-22.492538	-0.213018
2800.000001	-28.045753	-0.245276	-104.163987	0.414260	7.536075	0.335051	-22.427508	-0.213016
2900.000001	-28.157280	-0.255115	-105.940437	0.422305	7.637208	0.334399	-22.362946	-0.213039
3000.000001	-29.268010	-0.263866	-107.679796	0.445599	7.788202	0.333449	-22.300766	-0.213080
3100.000001	-29.276596	-0.265486	-106.915512	0.416688	7.943014	0.331934	-22.240974	-0.213143
3200.000001	-29.511624	-0.273766	-106.536533	0.377509	8.093031	0.330792	-22.183297	-0.213223
3300.000002	-29.861055	-0.279969	-107.841188	0.401816	8.284898	0.329348	-22.125345	-0.213311
3400.000002	-30.273342	-0.286485	-107.872528	0.430643	8.466971	0.326283	-22.073072	-0.213432
3500.000002	-30.449254	-0.285587	-106.799657	0.377894	8.543321	0.323227	-22.019584	-0.213555
3600.000002	-30.316909	-0.296924	-105.612838	0.414522	8.607898	0.321930	-21.968023	-0.213700
3700.000002	-30.642796	-0.304177	-108.692808	0.401357	8.719656	0.321359	-21.919228	-0.213843
3800.000002	-30.983676	-0.312588	-105.772778	0.433186	8.895919	0.320519	-21.871272	-0.214000
3900.000002	-31.210943	-0.321297	-114.838882	0.415579	9.084096	0.318469	-21.828104	-0.214165
4000.000002	-31.570356	-0.323958	-109.240832	-0.499188	9.232765	0.315730	-21.782264	-0.214348
4100.000002	-31.802022	-0.327769	-108.855157	0.428525	9.356608	0.313923	-21.737502	-0.214538
4200.000002	-32.158539	-0.330295	-111.968232	0.469038	9.536188	0.312397	-21.693554	-0.214747
4300.000002	-32.428589	-0.325990	-109.486881	0.481905	9.777465	0.309735	-21.650618	-0.214978
4400.000002	-32.130577	-0.315970	-113.910674	0.463517	10.039727	0.305021	-21.609827	-0.215235
4500.000002	-31.143648	-0.316621	-111.906662	0.440245	10.194007	0.297090	-21.573166	-0.215518
4600.000002	-30.202302	-0.334845	-110.884498	-0.470798	10.072735	0.289165	-21.540346	-0.215732
4700.000002	-30.182165	-0.355541	-109.751999	-0.499022	9.787037	0.285683	-21.505796	-0.215887
4800.000002	-30.199369	-0.371895	-111.857071	-0.449074	9.604912	0.286196	-21.469478	-0.216058
4900.000002	-30.222314	-0.385475	-110.473639	-0.407922	9.570303	0.287900	-21.434430	-0.216235
5000.000002	-30.441927	-0.398166	-109.289782	-0.429449	9.664130	0.288381	-21.399171	-0.216423
5100.000002	-30.539715	-0.409401	-110.803018	-0.353299	9.760305	0.287674	-21.364271	-0.216627
5200.000002	-30.754691	-0.420856	-110.632916	-0.449084	9.849296	0.286594	-21.330217	-0.216843
5300.000002	-30.783480	-0.431425	-110.752240	-0.340011	9.928140	0.285354	-21.297002	-0.217062
5400.000002	-31.223533	-0.446679	-104.687932	-0.360947	10.013256	0.283821	-21.264404	-0.217289
5500.000003	-31.360571	-0.447905	-106.795250	-0.385915	10.088970	0.282289	-21.232496	-0.217508
5600.000003	-31.212835	-0.458838	-104.392688	-0.348006	10.176485	0.280649	-21.201230	-0.217753
5700.000003	-31.858617	-0.470047	-105.481445	-0.336800	10.260127	0.278547	-21.168172	-0.218021
5800.000003	-30.421281	-0.472278	-105.982031	-0.359002	10.342576	0.276174	-21.149764	-0.218283
5900.000003	-30.916348	-0.497780	-104.063641	-0.339592	10.384042	0.273501	-21.118481	-0.218470
6000.000003	-31.415514	0.491589	-103.013761	-0.357500	10.399302	0.271174	-21.088611	-0.218704
6100.000003	-31.860235	0.483902	-102.737220	-0.377205	10.407260	0.269410	-21.059864	-0.218932
6200.000003	-32.142058	0.479663	-101.557823	-0.331130	10.425325	0.268001	-21.032542	-0.219166
6300.000003	-32.182460	0.475168	-102.702378	-0.341069	10.468040	0.266621	-21.006165	-0.219400
6400.000003	-32.135013	0.467691	-101.804776	-0.363682	10.525644	0.265104	-20.979974	-0.219635
6500.000003	-32.525872	0.462594	-100.668480	-0.356431	9.921438	0.264168	-21.620671	-0.218813
6600.000003	-32.062252	0.454407	-100.665361	-0.359196	10.272013	0.261383	-21.306677	-0.219460
6700.000003	-31.782547	0.442803	-100.504597	-0.350649	10.360298	0.258504	-21.234954	-0.219792
6800.000003	-31.590135	0.427697	-99.372144	-0.347054	10.199244	0.255809	-21.382827	-0.219744
7000.000003	-31.014637	0.392805	-99.528083	-0.361129	10.248779	0.249605	-21.199442	-0.220546
7100.000003	-30.984602	0.365278	-97.637996	-0.351612	10.147195	0.247460	-21.149990	-0.220773
7200.000003	-31.539451	0.335051	-98.127475	-0.361536	10.050786	0.246951	-21.086197	-0.221100
7300.000003	-32.213211	0.310759	-97.598362	-0.349316	10.198936	0.247648	-20.861301	-0.221665
7400.000003	-33.197148	0.279274	-97.645786	-0.375996	10.057939	0.247124	-20.976534	-0.221667
7500.000003	-35.785587	0.250216	-98.236640	-0.337120	9.945442	0.247413	-21.008822	-0.221805
7700.000004	-38.473805	0.361774	-97.587030	-0.354424	9.932696	0.249351	-20.986495	-0.222243
7800.000004	-37.312170	0.348044	-96.775196	-0.339073	10.015195	0.250184	-20.933306	-0.222543
7900.000004	-37.344655	0.341531	-96.353348	-0.353806	10.127333	0.250737	-20.888888	-0.222816
8100.000004	-37.216487	0.340482	-95.046020	-0.363056	10.362943	0.250269	-20.834653	-0.223322
8200.000004	-37.146809	0.340615	-95.804559	-0.360832	10.486909	0.249363	-20.804430	-0.223580
8300.000004	-36.814033	0.338730	-95.000444	-0.366040	10.597457	0.248076	-20.778415	-0.223828
8500.000004	-36.486011	0.336769	-94.324372	-0.366289	10.545143	0.245059	-20.946742	-0.223941
8600.000004	-35.824134	0.331070	-94.204546	-0.362550	10.696891	0.243260	-20.830342	-0.224359
8800.000004	-34.838415	0.317047	-92.814078	-0.360224	10.827885	0.240076	-20.750962	-0.224920
8900.000004	-35.146376	0.307644	-93.013534	-0.368909	10.865403	0.238680	-20.723655	-0.225176
9100.000004	-34.308267	0.301483	-92.623258	-0.379975	10.912280	0.236376	-20.694951	-0.225643
9200.000004	-33.949418	0.290993	-92.798290	-0.380759	10.944135	0.235449	-20.684366	-0.225868
9400.000004	-33.598438	0.281957	-92.080407	-0.381149	11.031949	0.233483	-20.653949	-0.226345
9500.000004	-33.253354	0.283887	-91.382965	-0.381608	11.070278	0.232356	-20.641027	-0.226591
9700.000004	-32.253652	0.264983	-91.342130	-0.373272	11.159239	0.230260	-20.609362	-0.227058
9800.000005	-31.948095	0.256021	-91.163345	-0.389115	11.197326	0.229088	-20.593510	-0.227299
10000.000005	-31.001141	0.244632	-90.614310	-0.384775	11.261103	0.227194	-20.562417	-0.227778
10200.000005	-29.793426	0.228155	-90.161103	-0.385616	11.315960	0.226040	-20.532381	-0.228257
10300.000005	-28.787169	0.219294	-90.336552	-0.395923	11.350276	0.225680	-20.514651	-0.228499
10500.000005	-27.509534	0.199033	-89.191714	-0.394433	11.459397	0.225951	-20.477029	-0.228993
10700.000005	-25.827278	0.177417	-88.955574	-0.392885	11.622651	0.227240	-20.442463	-0.229480
10900.000005	-23.572045	0.152608	-88.533020	-0.387431	11.898534	0.230192	-20.410111	-0.229976
11000.000005	-22.180390	0.136794	-88.194733	-0.381975	12.122074	0.232595	-20.393918	-0.230222
11200.000005	-18.708809	0.089038	-87.055255	-0.382857	13.018701	0.238743	-20.365494	-0.230739
11400.000005	-14.695594	-0.019088	-84.459561	-0.396977	15.164896	0.221638	-20.340652	-0.231326
11600.000005	-15.523888	-0.176593	-84.074161	-0.453951	15.179913	0.169785	-20.317969	-0.231766
11800.000005	-19.734420	-0.265126	-85.590812	-0.464440	13.599155	0.158760	-20.292296	-0.232136
12000.000006	-23.156669	-0.308313	-86.208175	-0.462545	12.848959	0.159287	-20.267697	-0.232577
12200.000006	-25.854554	-0.338772	-86.064444	-0.462619	12.499565	0.160396	-20.243692	-0.233016
12400.000006	-28.000023	-0.364034	-86.294124	-0.462344	12.324408	0.160590	-20.222640	-0.233473
12600.000006	-29.969682	-0.380043	-85.784079	-0.465189	12.225463	0.159884	-20.203076	-0.233927
12800.000006	-31.484566	-0.397712	-86.028139	-0.466996	12.166456	0.158552	-20.182547	-0.234386
13000.000006	-33.286409	-0.411543	-85.759780	-0.469104	12.121009	0.156799	-20.162909	-0.234842
13200.000006	-34.593697	-0.421194	-85.652732	-0.466095	12.085793	0.155081	-20.142672	-0.235296
13400.000006	-35.375143	-0.409795	-85.220242	-0.474010	12.094949	0.152742	-20.124224	-0.235752
13700.000006	-35.725864	-0.441431	-85.028255	-0.477324	12.021259	0.148249	-20.094955	-0.236441
13900.000006	-36.320190	-0.450338	-84.854227	-0.483298	11.932572	0.145792	-20.076090	-0.236897
14100.000006	-36.379230	-0.453766	-84.970045	-0.486987	11.808946	0.145042	-20.057577	-0.237350
14400.000007	-36.314641	0.496576	-84.384838	-0.485247	11.932516	0.144679	-20.031170	-0.238027
14600.000007	-36.815666	0.478003	-84.330522	-0.485826	12.001514	0.141865	-20.013776	-0.238484
14800.000007	-37.337164	0.460674	-83.933248	-0.488234	12.030600	0.138981	-19.996702	-0.238936
15100.000007	-38.417355	0.426922	-83.770487	-0.496678	12.054063	0.134667	-19.971070	-0.239614
15300.000007	-39.388535	0.400897	-83.399211	0.497824	12.063242	0.131888	-19.954297	-0.240067
15600.000007	-39.859023	0.376648	-83.180976	0.496167	12.073648	0.127824	-19.930480	-0.240745
15900.000007	-40.368368	0.351682	-82.757589	0.489129	12.082207	0.123676	-19.906926	-0.241416
16100.000007	-41.741319	0.347990	-82.619037	0.487129	12.089505	0.120949	-19.891123	-0.241863
16400.000008	-42.090925	0.335884	-82.560621	0.482255	12.101965	0.116881	-19.868030	-0.242534
16700.000008	-41.410222	0.304741	-82.196359	0.479886	12.131160	0.112651	-19.846242	-0.243204
16900.000008	-41.636656	0.298790	-82.076419	0.476561	12.148166	0.109603	-19.832043	-0.243649
17200.000008	-41.936940	0.263508	-81.793826	0.468806	12.178396	0.104734	-19.810804	-0.244320
17500.000008	-42.947468	0.249973	-81.600228	0.464398	12.195264	0.099523	-19.789906	-0.244990
17800.000008	-41.655724	0.213790	-81.442998	0.458863	12.192359	0.094196	-19.768761	-0.245660
18100.000008	-41.504835	0.173305	-81.115493	0.450923	12.171366	0.088672	-19.748408	-0.246325
18400.000008	-43.120153	0.107047	-80.953007	0.445215	12.133910	0.083077	-19.728929	-0.246991
18700.000009	-49.519258	0.144095	-80.821877	0.436684	12.087884	0.077497	-19.708922	-0.247657
19000.000009	-45.890184	0.163079	-80.717101	0.434594	12.025373	0.071240	-19.689548	-0.248326
19300.000009	-45.127237	0.130401	-80.800747	0.426019	11.853791	0.063644	-19.669747	-0.248989
19700.000009	-45.150076	0.071850	-80.939166	0.422315	11.323241	0.061166	-19.645210	-0.249878
20000.000009	-45.050012	0.065831	-80.700539	0.424420	11.354943	0.061663	-19.628018	-0.250544
