% f823.txt
% Date Thu, Jun 24, 2021 6:06 PM
% Ascending Sine seq
% Response spectrum
% Stim level (V pk) 0.500, 0 dB filter gain, 120.0 dB attenuation
% Freq [Hz]	Ch0 Mag [dB]	Ch0 Phase [cyc]	Ch1 Mag [dB]	Ch1 Phase [cyc]	Ch2 Mag [dB]	Ch2 Phase [cyc]	Ch3 Mag [dB]	Ch3 Phase [cyc]
%%end
100.000000	9.285461	0.165741	-111.901401	-0.346884	-13.388767	0.116049	-23.225299	-0.268238
200.000000	-1.924387	0.009163	-122.634948	0.020339	-10.275710	-0.448816	-25.462781	-0.254955
300.000000	-6.417534	-0.013735	-104.729397	-0.133180	-6.521060	-0.494371	-25.462812	-0.245887
400.000000	-9.439696	-0.033194	-119.694734	-0.183048	-2.972223	0.469761	-25.380138	-0.239356
500.000000	-12.026909	-0.044297	-114.866466	-0.269973	-1.853002	0.432713	-25.260717	-0.234750
600.000000	-13.356956	-0.041163	-124.715652	-0.313513	-1.298597	0.413690	-25.124393	-0.231438
700.000000	-14.343326	-0.061012	-121.336250	0.471746	-0.736673	0.403338	-25.009345	-0.228612
800.000000	-15.957286	-0.079970	-115.856486	-0.436978	-0.235770	0.395509	-24.885188	-0.225931
900.000000	-17.321210	-0.090405	-111.768692	-0.492110	0.190921	0.389011	-24.755830	-0.223789
1000.000000	-18.121215	-0.098513	-114.724953	-0.484016	0.650416	0.382476	-24.628871	-0.221968
1100.000001	-19.253431	-0.108839	-113.057919	-0.465378	0.932255	0.376975	-24.505375	-0.220413
1200.000001	-20.176790	-0.118193	-110.083270	0.470420	1.226611	0.373063	-24.385757	-0.219081
1300.000001	-21.074720	-0.126839	-115.028180	0.492769	1.500709	0.369093	-24.270496	-0.217945
1400.000001	-21.946920	-0.131604	-118.314818	-0.476174	1.723666	0.365334	-24.156898	-0.216965
1500.000001	-22.341455	-0.136786	-114.062556	0.491882	1.902173	0.363520	-24.050470	-0.216174
1600.000001	-22.897969	-0.150717	-114.600715	0.478878	2.173867	0.361434	-23.947818	-0.215424
1700.000001	-23.516936	-0.156890	-109.581185	-0.480815	2.336602	0.359193	-23.846783	-0.214820
1800.000001	-24.056313	-0.168703	-111.879988	-0.480752	2.550138	0.358016	-23.750448	-0.214282
1900.000001	-24.688078	-0.177696	-111.318779	0.477231	2.766175	0.356912	-23.656678	-0.213837
2000.000001	-25.286694	-0.185494	-117.308736	0.333450	2.987263	0.355244	-23.566865	-0.213466
2100.000001	-25.864365	-0.192444	-107.766487	0.399409	3.194033	0.353515	-23.479852	-0.213166
2200.000001	-26.295130	-0.197263	-109.319836	0.479165	3.375794	0.351632	-23.396368	-0.212941
2300.000001	-26.660564	-0.205237	-112.425638	0.472493	3.548812	0.350102	-23.316620	-0.212738
2400.000001	-26.938192	-0.213084	-107.565393	0.445717	3.714209	0.348662	-23.239534	-0.212590
2500.000001	-27.383801	-0.223257	-109.235342	0.497299	3.857454	0.347327	-23.164950	-0.212472
2600.000001	-27.830810	-0.231336	-110.616054	0.417279	4.025215	0.346444	-23.093029	-0.212396
2700.000001	-28.252794	-0.238574	-107.762031	0.409196	4.207830	0.344814	-23.023722	-0.212349
2800.000001	-28.581304	-0.244924	-108.197388	0.440355	4.328708	0.343181	-22.956498	-0.212341
2900.000001	-28.553742	-0.257294	-108.042183	0.393715	4.438928	0.342330	-22.892046	-0.212350
3000.000001	-30.007432	-0.263280	-109.449603	0.438531	4.575398	0.341808	-22.829050	-0.212387
3100.000001	-29.967110	-0.264537	-111.254894	0.457297	4.725351	0.341324	-22.768448	-0.212439
3200.000001	-30.147251	-0.272102	-109.394385	0.438654	4.879635	0.340643	-22.709442	-0.212508
3300.000002	-30.580444	-0.279277	-109.394975	0.456202	5.028179	0.340102	-22.652477	-0.212601
3400.000002	-30.885935	-0.284340	-107.632333	0.434720	5.188697	0.339737	-22.597257	-0.212699
3500.000002	-31.069599	-0.282073	-113.841860	0.465035	5.360123	0.339189	-22.543981	-0.212818
3600.000002	-30.923604	-0.295813	-112.323605	0.381186	5.506797	0.338383	-22.493000	-0.212953
3700.000002	-31.328784	-0.302604	-116.845504	-0.484333	5.658080	0.338397	-22.442330	-0.213091
3800.000002	-31.578278	-0.309929	-113.408297	0.400538	5.842423	0.338664	-22.393590	-0.213244
3900.000002	-31.951367	-0.316554	-111.314648	-0.429686	6.051746	0.338969	-22.345560	-0.213407
4000.000002	-32.346791	-0.319448	-112.340326	0.427414	6.294010	0.339681	-22.298772	-0.213590
4100.000002	-32.658593	-0.320177	-111.842122	0.341904	6.612674	0.340760	-22.253187	-0.213781
4200.000002	-32.930997	-0.318592	-113.949932	-0.491320	7.080627	0.341611	-22.208759	-0.214002
4300.000002	-33.028282	-0.309043	-115.371634	0.489391	7.746957	0.338538	-22.165960	-0.214254
4400.000002	-32.004017	-0.297881	-109.857506	0.468476	8.422849	0.328694	-22.126885	-0.214528
4500.000002	-30.589024	-0.313950	-115.327343	0.471294	8.693072	0.311444	-22.094014	-0.214763
4600.000002	-30.185986	-0.340544	-121.315922	0.377983	8.366044	0.297995	-22.059369	-0.214911
4700.000002	-30.414547	-0.359794	-112.228392	-0.472693	7.935863	0.292816	-22.022631	-0.215051
4800.000002	-30.667999	-0.372571	-113.388092	0.455819	7.689653	0.291580	-21.985939	-0.215224
4900.000002	-30.643032	-0.385809	-114.171381	-0.428208	7.515650	0.291081	-21.949811	-0.215401
5000.000002	-30.913158	-0.398654	-110.921549	-0.365594	7.427500	0.291572	-21.913713	-0.215595
5100.000002	-31.058993	-0.410084	-111.202297	-0.321780	7.406421	0.292061	-21.878170	-0.215798
5200.000002	-31.205176	-0.420071	-115.651351	-0.276191	7.431682	0.292477	-21.843906	-0.216010
5300.000002	-31.229418	-0.430710	-113.420941	-0.397859	7.486921	0.292576	-21.810336	-0.216228
5400.000002	-31.690725	-0.444419	-107.228825	-0.326544	7.575154	0.292438	-21.777280	-0.216448
5500.000003	-31.708347	-0.446116	-106.747422	-0.368611	7.684789	0.291824	-21.745523	-0.216665
5600.000003	-31.754002	-0.458751	-106.666150	-0.351626	7.809688	0.290862	-21.713432	-0.216910
5700.000003	-32.373012	-0.471273	-106.111944	-0.371679	7.948604	0.288987	-21.679447	-0.217181
5800.000003	-31.011404	-0.473334	-106.877112	-0.266197	8.062423	0.286634	-21.660749	-0.217427
5900.000003	-31.726466	-0.492300	-107.268574	-0.368983	8.118798	0.283415	-21.628758	-0.217612
6000.000003	-32.093947	0.499008	-105.177851	-0.325189	8.112454	0.281066	-21.599861	-0.217841
6100.000003	-32.277239	0.493889	-104.301841	-0.340706	8.112334	0.279804	-21.569823	-0.218068
6200.000003	-32.328733	0.488212	-106.360336	-0.305140	8.136527	0.279089	-21.542209	-0.218295
6300.000003	-32.263574	0.480612	-103.868895	-0.330212	8.193880	0.278584	-21.514259	-0.218530
6400.000003	-32.073797	0.473159	-103.764210	-0.338413	8.272565	0.278075	-21.487254	-0.218763
6500.000003	-31.823890	0.462657	-102.069064	-0.343848	8.379054	0.277361	-21.461018	-0.219007
6600.000003	-31.550137	0.451597	-102.899730	-0.306625	8.509308	0.276437	-21.435469	-0.219243
6700.000003	-31.275491	0.437521	-101.276901	-0.354591	8.657999	0.275032	-21.410222	-0.219486
6800.000003	-31.072399	0.420037	-101.645160	-0.359609	8.819548	0.273022	-21.385184	-0.219733
7000.000003	-30.888437	0.380939	-99.809952	-0.328385	9.120816	0.266681	-21.341562	-0.220290
7100.000003	-30.909643	0.350152	-99.683748	-0.357713	9.253449	0.262201	-21.318759	-0.220476
7200.000003	-31.582737	0.315261	-99.934181	-0.339535	9.285557	0.256733	-21.296210	-0.220711
7300.000003	-33.434899	0.287622	-98.839120	-0.352536	9.190899	0.252613	-21.273629	-0.220939
7400.000003	-34.861712	0.272315	-99.014226	-0.359040	9.193362	0.250616	-21.252504	-0.221176
7500.000003	-37.453357	0.247711	-98.053721	-0.365739	9.177149	0.247083	-21.230718	-0.221407
7700.000004	-38.376725	0.368476	-98.487880	-0.364029	9.026572	0.241876	-21.188406	-0.221882
7800.000004	-37.482693	0.352952	-97.517688	-0.363378	8.951829	0.240528	-21.168699	-0.222121
7900.000004	-37.475506	0.345779	-98.398471	-0.381386	8.906795	0.239545	-21.147609	-0.222349
8100.000004	-37.325155	0.345163	-97.582971	-0.375762	8.871047	0.238167	-21.107689	-0.222823
8200.000004	-37.268075	0.343840	-97.476636	-0.366175	8.885416	0.237491	-21.088329	-0.223057
8300.000004	-37.015452	0.343630	-96.134332	-0.365133	8.913756	0.236613	-21.068960	-0.223297
8500.000004	-36.311382	0.335704	-95.344717	-0.371402	8.987751	0.234261	-21.031883	-0.223776
8600.000004	-36.007096	0.332326	-96.115049	-0.381614	9.017809	0.232806	-21.014063	-0.224017
8800.000004	-35.520945	0.321044	-94.792064	-0.394923	9.069279	0.229895	-20.978225	-0.224491
8900.000004	-35.115313	0.317442	-94.841727	-0.360756	9.092878	0.228427	-20.961164	-0.224729
9100.000004	-34.389433	0.302191	-94.354340	-0.388531	9.140048	0.225577	-20.927417	-0.225208
9200.000004	-33.967091	0.291872	-94.413636	-0.387515	9.162961	0.224189	-20.911132	-0.225446
9400.000004	-33.805486	0.282422	-93.674016	-0.399453	9.216539	0.221386	-20.878599	-0.225922
9500.000004	-33.308265	0.281703	-93.083372	-0.394126	9.247099	0.219979	-20.862819	-0.226167
9700.000004	-32.470070	0.264237	-92.617216	-0.395080	9.318321	0.216747	-20.831983	-0.226637
9800.000005	-31.931055	0.257868	-92.520539	-0.397935	9.349186	0.214949	-20.816329	-0.226871
10000.000005	-31.082456	0.247890	-92.417668	-0.403835	9.404417	0.211219	-20.785824	-0.227350
10200.000005	-29.816124	0.229749	-92.638288	-0.404733	9.443323	0.207257	-20.756308	-0.227822
10300.000005	-28.998420	0.221054	-91.404271	-0.415154	9.455194	0.205190	-20.742258	-0.228058
10500.000005	-27.569572	0.200345	-91.348475	-0.417320	9.464543	0.200839	-20.714043	-0.228532
10700.000005	-25.730593	0.179083	-90.984802	-0.426153	9.450628	0.195888	-20.686525	-0.229002
10900.000005	-23.487330	0.152141	-90.452074	-0.431727	9.362878	0.189892	-20.658137	-0.229488
11000.000005	-22.059102	0.134755	-90.531727	-0.438087	9.268456	0.186405	-20.644020	-0.229738
11200.000005	-18.430675	0.082542	-90.946166	-0.441617	8.758556	0.178202	-20.617150	-0.230251
11400.000005	-14.621736	-0.035363	-92.561239	-0.436166	7.265386	0.189515	-20.594922	-0.230837
11600.000005	-16.290014	-0.189033	-90.958793	-0.399635	8.550227	0.220455	-20.578290	-0.231238
11800.000005	-20.498050	-0.269416	-89.819733	-0.408023	9.556287	0.210170	-20.553312	-0.231612
12000.000006	-23.870306	-0.310840	-89.077454	-0.422489	9.842581	0.200801	-20.528784	-0.232043
12200.000006	-26.469352	-0.338542	-88.665856	-0.430580	9.960918	0.193868	-20.504617	-0.232498
12400.000006	-28.534326	-0.361643	-88.554781	-0.438347	10.020978	0.188355	-20.481072	-0.232957
12600.000006	-30.383248	-0.381384	-88.169468	-0.440006	10.059283	0.183622	-20.458730	-0.233415
12800.000006	-32.107510	-0.397363	-88.183766	-0.451913	10.087694	0.179395	-20.437151	-0.233872
13000.000006	-33.862541	-0.411750	-87.707934	-0.449028	10.112273	0.175456	-20.415457	-0.234328
13200.000006	-35.504208	-0.417320	-87.311187	-0.450379	10.130197	0.171685	-20.394083	-0.234800
13400.000006	-36.155746	-0.405886	-87.137449	-0.461295	10.137617	0.168243	-20.373647	-0.235243
13700.000006	-36.046762	-0.429614	-86.807340	-0.463752	10.191974	0.163499	-20.343922	-0.235928
13900.000006	-37.041365	-0.431254	-86.746944	-0.471689	10.238844	0.159935	-20.324557	-0.236382
14100.000006	-36.170240	-0.446940	-86.690160	-0.471374	10.274872	0.155732	-20.305518	-0.236839
14400.000007	-36.374353	0.499040	-86.261214	-0.479024	10.236494	0.150056	-20.277375	-0.237520
14600.000007	-37.042972	0.479775	-85.906093	-0.485894	10.224578	0.146924	-20.258649	-0.237972
14800.000007	-37.591360	0.459920	-85.714056	-0.488358	10.221641	0.143827	-20.240578	-0.238424
15100.000007	-38.331262	0.427274	-85.641680	-0.492481	10.219228	0.139154	-20.214333	-0.239105
15300.000007	-39.080929	0.409600	-85.101319	-0.496476	10.218523	0.136066	-20.197288	-0.239554
15600.000007	-39.603819	0.388487	-84.847459	0.497380	10.214868	0.131390	-20.172159	-0.240227
15900.000007	-40.846275	0.356022	-85.028012	0.494090	10.208247	0.126779	-20.147756	-0.240901
16100.000007	-41.468858	0.345121	-84.799703	0.492000	10.203148	0.123757	-20.131810	-0.241350
16400.000008	-42.281765	0.333028	-84.402696	0.485316	10.194700	0.119211	-20.108343	-0.242018
16700.000008	-41.657239	0.320239	-84.514923	0.478005	10.186333	0.114711	-20.085362	-0.242684
16900.000008	-41.664957	0.299971	-84.103960	0.476223	10.180608	0.111710	-20.070377	-0.243135
17200.000008	-41.982551	0.267834	-83.762383	0.468941	10.172650	0.107165	-20.048797	-0.243800
17500.000008	-43.561362	0.251614	-83.428112	0.468205	10.163852	0.102594	-20.027183	-0.244467
17800.000008	-42.186361	0.222039	-83.444959	0.458828	10.149412	0.098000	-20.006179	-0.245135
18100.000008	-41.764790	0.172483	-83.334738	0.455666	10.135730	0.093284	-19.985464	-0.245797
18400.000008	-42.975891	0.106431	-83.041154	0.447270	10.116369	0.088397	-19.965603	-0.246464
18700.000009	-48.341371	0.141760	-82.737504	0.443463	10.089269	0.083423	-19.945874	-0.247130
19000.000009	-45.629079	0.147668	-82.845738	0.440498	10.050886	0.078095	-19.926572	-0.247792
19300.000009	-44.014134	0.109308	-82.695758	0.431864	9.954126	0.072320	-19.907709	-0.248458
19700.000009	-45.285305	0.060025	-82.716332	0.424065	9.757288	0.067798	-19.883776	-0.249337
20000.000009	-45.782193	0.064379	-82.395364	0.425680	9.722508	0.064617	-19.865632	-0.249992
