% f4441.txt
% Date Thu, Jun 24, 2021 8:46 PM
% Ascending Sine seq
% Response spectrum
% Stim level (V pk) 0.500, 0 dB filter gain, 120.0 dB attenuation
% Freq [Hz]	Ch0 Mag [dB]	Ch0 Phase [cyc]	Ch1 Mag [dB]	Ch1 Phase [cyc]	Ch2 Mag [dB]	Ch2 Phase [cyc]	Ch3 Mag [dB]	Ch3 Phase [cyc]
%%end
100.000000	-108.090620	0.381744	-124.903752	-0.099337	-9.966010	-0.089060	-22.549077	-0.267536
200.000000	-120.487700	-0.479113	-113.990973	0.051088	-7.928883	-0.095797	-24.762342	-0.255049
300.000000	-108.105059	0.227986	-104.996547	-0.241996	-6.735076	-0.254973	-24.764162	-0.245907
400.000000	-119.218337	0.371789	-117.077318	0.010208	-11.144733	-0.211139	-24.682824	-0.239544
500.000000	-114.042506	0.218393	-113.265031	0.298923	-14.596355	-0.284827	-24.565517	-0.234996
600.000000	-117.583439	0.023211	-122.541896	-0.045957	-11.398548	-0.230236	-24.430360	-0.231715
700.000000	-121.264430	0.342487	-116.298953	-0.053279	-8.980043	-0.295374	-24.318145	-0.228953
800.000000	-120.630148	-0.089531	-120.020694	-0.049731	-7.447925	-0.328427	-24.196736	-0.226317
900.000000	-123.629853	0.178934	-117.323504	-0.027125	-7.862953	-0.367185	-24.070053	-0.224216
1000.000000	-127.837787	0.140902	-109.244682	-0.220503	-7.035324	-0.376626	-23.945307	-0.222429
1100.000001	-132.392763	0.450240	-124.470859	-0.091940	-6.435405	-0.402794	-23.823767	-0.220913
1200.000001	-122.367545	0.463409	-116.139413	-0.324621	-6.340030	-0.417679	-23.706052	-0.219615
1300.000001	-120.658116	-0.379142	-115.331825	-0.248868	-5.815815	-0.431477	-23.591694	-0.218497
1400.000001	-121.359480	0.478919	-112.889216	-0.340926	-5.920273	-0.441854	-23.479683	-0.217551
1500.000001	-120.623177	-0.266317	-113.332034	-0.153592	-4.886320	-0.437703	-23.374238	-0.216777
1600.000001	-123.750765	-0.298171	-114.449113	-0.230217	-3.600316	-0.466559	-23.273552	-0.216062
1700.000001	-132.420301	-0.472543	-117.588048	-0.178140	-4.549769	-0.482177	-23.174372	-0.215478
1800.000001	-119.621540	-0.346968	-118.166245	-0.353272	-4.329480	-0.481272	-23.079679	-0.214969
1900.000001	-122.437057	0.138424	-123.437153	-0.442506	-3.767732	-0.484468	-22.987698	-0.214535
2000.000001	-111.260470	-0.314751	-113.000801	-0.422261	-3.347078	-0.494781	-22.899555	-0.214189
2100.000001	-121.943710	0.486124	-112.811017	-0.333539	-3.343981	0.496699	-22.813911	-0.213907
2200.000001	-125.585540	-0.002049	-114.637275	-0.376548	-3.330872	0.495163	-22.732577	-0.213688
2300.000001	-131.240739	-0.273277	-115.282734	-0.326283	-3.063381	0.495262	-22.653808	-0.213513
2400.000001	-116.494396	-0.098143	-111.829282	-0.387996	-2.666122	0.495475	-22.578230	-0.213379
2500.000001	-113.484914	0.403937	-112.430599	-0.419226	-2.219616	0.491868	-22.505427	-0.213275
2600.000001	-123.712476	0.341631	-112.544374	-0.328832	-1.864341	0.487585	-22.435115	-0.213208
2700.000001	-132.025769	-0.227090	-113.780405	-0.460377	-1.606365	0.484233	-22.367120	-0.213181
2800.000001	-117.318255	-0.267551	-114.685133	-0.305600	-1.339018	0.482251	-22.301503	-0.213180
2900.000001	-116.827651	-0.340494	-111.900834	-0.413436	-1.010918	0.480647	-22.238255	-0.213208
3000.000001	-112.633307	-0.423322	-108.994904	-0.324880	-0.647394	0.479382	-22.177652	-0.213248
3100.000001	-119.873243	-0.227049	-111.609788	-0.369835	-0.304918	0.477252	-22.118612	-0.213311
3200.000001	-114.021444	-0.498175	-112.138785	-0.406469	0.031386	0.475923	-22.061517	-0.213392
3300.000002	-125.419252	0.350715	-110.382562	-0.420423	0.402285	0.474804	-22.006331	-0.213485
3400.000002	-111.726582	-0.487271	-111.539781	-0.460255	0.815723	0.473869	-21.952640	-0.213603
3500.000002	-113.482826	-0.325888	-114.236762	-0.332949	1.260785	0.472214	-21.900790	-0.213729
3600.000002	-115.025753	0.455116	-112.925325	0.491399	1.698826	0.470587	-21.850045	-0.213869
3700.000002	-114.276227	-0.405693	-111.725508	-0.395903	2.151043	0.469282	-21.800992	-0.214016
3800.000002	-120.077924	-0.445827	-113.607160	-0.352210	2.635483	0.468123	-21.753268	-0.214179
3900.000002	-116.601564	0.434517	-113.250657	-0.443171	3.179814	0.467644	-21.706911	-0.214348
4000.000002	-113.609236	-0.357470	-110.039383	-0.376488	3.845320	0.467425	-21.661719	-0.214520
4100.000002	-118.979005	-0.490472	-111.321469	-0.440158	4.676680	0.466318	-21.617615	-0.214716
4200.000002	-116.757628	-0.499967	-115.855241	-0.463052	5.704928	0.462676	-21.574360	-0.214916
4300.000002	-113.550374	0.411245	-111.414373	-0.448133	6.885573	0.454302	-21.532188	-0.215133
4400.000002	-115.004456	0.417553	-111.437523	-0.403447	8.223199	0.439992	-21.491649	-0.215360
4500.000002	-110.203104	0.481081	-114.142927	-0.371178	9.653311	0.412651	-21.453270	-0.215642
4600.000002	-108.838612	0.420369	-109.991080	-0.445542	10.355208	0.369491	-21.419124	-0.215910
4700.000002	-111.108656	0.338529	-113.329470	0.444791	9.673670	0.327904	-21.386805	-0.216107
4800.000002	-113.674290	0.321227	-110.724515	0.485817	8.541225	0.304585	-21.352839	-0.216280
4900.000002	-117.904928	0.323918	-110.260310	-0.424163	7.285118	0.288566	-21.318985	-0.216452
5000.000002	-110.770340	0.371235	-114.351300	0.404819	6.053203	0.284214	-21.284349	-0.216637
5100.000002	-123.782999	-0.025479	-117.383381	-0.369021	5.127859	0.286582	-21.249984	-0.216832
5200.000002	-122.891577	0.134018	-120.661863	-0.341980	4.505195	0.292442	-21.216292	-0.217041
5300.000002	-120.262571	0.316061	-112.515997	0.488376	4.148169	0.299585	-21.183885	-0.217259
5400.000002	-113.058055	0.158764	-115.001524	-0.383427	4.047168	0.306407	-21.152127	-0.217489
5500.000003	-112.622371	0.277580	-118.705167	-0.317726	4.095065	0.310776	-21.120242	-0.217707
5600.000003	-115.112358	0.260791	-113.689237	-0.358692	4.208649	0.314977	-21.089554	-0.217947
5700.000003	-112.906740	0.323712	-111.858691	-0.312854	4.474454	0.317484	-21.057041	-0.218212
5800.000003	-113.775629	0.204070	-116.916070	-0.304445	4.888374	0.320091	-21.038899	-0.218476
5900.000003	-122.738755	0.149864	-110.586910	-0.337113	5.374251	0.314586	-21.007627	-0.218664
6000.000003	-117.867061	0.357451	-112.311482	-0.326487	5.648487	0.305451	-20.979897	-0.218900
6100.000003	-115.799668	0.301630	-108.726511	-0.334605	5.658162	0.295770	-20.952623	-0.219133
6200.000003	-135.010153	-0.355768	-109.641236	-0.338561	5.434745	0.288332	-20.925907	-0.219364
6300.000003	-123.137406	0.402277	-108.546132	-0.340469	5.135303	0.285238	-20.899914	-0.219599
6400.000003	-118.000870	0.101669	-110.707171	-0.352996	4.894837	0.285954	-20.874064	-0.219832
6500.000003	-119.030040	0.144556	-109.518015	-0.314254	4.803899	0.288975	-20.849002	-0.220069
6600.000003	-120.982098	0.396126	-109.368647	-0.301413	4.902586	0.293039	-20.824467	-0.220299
6700.000003	-110.970449	0.204253	-107.512032	-0.342523	5.184274	0.296295	-20.800238	-0.220553
6800.000003	-118.248225	0.201453	-107.050244	-0.329958	5.643882	0.297525	-20.775891	-0.220797
7000.000003	-118.163120	0.230899	-107.405900	-0.307238	6.817988	0.287452	-20.731922	-0.221372
7100.000003	-114.859254	0.125291	-104.387114	-0.324584	7.343841	0.274990	-20.709956	-0.221547
7200.000003	-115.080464	0.236470	-103.352508	-0.360686	7.530245	0.258277	-20.688141	-0.221792
7300.000003	-141.380007	-0.382265	-101.439641	-0.360067	7.230737	0.242141	-20.666582	-0.222030
7400.000003	-113.152701	0.495620	-102.509120	-0.354085	6.872707	0.238946	-20.646029	-0.222268
7500.000003	-114.258832	0.276285	-101.812169	-0.390481	6.944215	0.231003	-20.625288	-0.222505
7700.000004	-114.883549	0.439478	-102.111844	-0.418256	6.411793	0.211980	-20.584375	-0.222981
7800.000004	-116.512852	0.282522	-102.742988	-0.418164	5.991290	0.205690	-20.565599	-0.223224
7900.000004	-111.928699	0.274806	-103.302539	-0.438526	5.609898	0.201342	-20.545775	-0.223452
8100.000004	-127.392475	-0.145419	-104.097466	-0.439402	4.864105	0.197719	-20.507222	-0.223927
8200.000004	-121.633693	0.165047	-102.765547	-0.398360	4.569286	0.197923	-20.488691	-0.224165
8300.000004	-114.447067	0.435149	-101.722618	-0.400268	4.341287	0.198767	-20.470391	-0.224409
8500.000004	-114.102861	0.326107	-102.779158	-0.408263	4.077377	0.200550	-20.433902	-0.224886
8600.000004	-125.844246	-0.086670	-102.977597	-0.389640	3.990415	0.201006	-20.416600	-0.225131
8800.000004	-119.740160	0.429919	-100.690832	-0.424855	3.911510	0.201481	-20.381823	-0.225599
8900.000004	-132.876148	0.413055	-101.433783	-0.427943	3.905592	0.200983	-20.365062	-0.225851
9100.000004	-113.280563	0.224617	-103.066477	-0.418260	3.902706	0.198821	-20.331925	-0.226334
9200.000004	-125.925945	0.338387	-101.000100	-0.433762	3.887806	0.197109	-20.315773	-0.226577
9400.000004	-119.314483	0.212395	-99.523363	-0.416620	3.836535	0.194141	-20.284200	-0.227056
9500.000004	-117.264366	0.429821	-102.247007	-0.422627	3.827211	0.192877	-20.268653	-0.227302
9700.000004	-125.749404	0.419431	-100.263976	-0.445661	3.894976	0.189694	-20.238465	-0.227776
9800.000005	-116.068578	0.214632	-100.084044	-0.436260	3.944848	0.187171	-20.223591	-0.228016
10000.000005	-120.108243	0.201898	-99.350307	-0.444876	4.049519	0.180249	-20.194192	-0.228490
10200.000005	-118.032566	0.350482	-99.386731	-0.432915	4.073941	0.170606	-20.165256	-0.228974
10300.000005	-124.196360	0.130010	-99.169899	-0.447619	4.070076	0.165657	-20.151487	-0.229208
10500.000005	-117.007477	-0.494362	-97.379529	-0.468950	4.058448	0.152332	-20.123386	-0.229686
10700.000005	-116.303311	0.207671	-97.654212	0.497853	4.036819	0.134556	-20.096392	-0.230163
10900.000005	-118.280098	0.112502	-98.036556	0.477439	3.995849	0.106093	-20.069688	-0.230643
11000.000005	-114.289240	0.112051	-97.894435	0.468287	3.964569	0.084666	-20.056267	-0.230877
11200.000005	-127.985703	0.090925	-97.058317	0.379972	3.934120	0.009034	-20.030064	-0.231391
11400.000005	-115.141601	0.075468	-95.414355	0.192437	4.631700	-0.172546	-20.005836	-0.231954
11600.000005	-119.886547	-0.203397	-92.524466	-0.074110	7.135356	-0.456773	-19.990618	-0.232449
11800.000005	-117.968272	-0.416863	-93.069233	-0.242422	6.988357	0.379607	-19.968708	-0.232805
12000.000006	-113.264044	-0.266250	-92.944154	-0.301074	6.487821	0.310538	-19.944666	-0.233242
12200.000006	-113.023974	-0.463531	-94.821003	-0.351463	6.151233	0.273560	-19.921349	-0.233688
12400.000006	-118.048407	0.471471	-93.381878	-0.370620	5.895606	0.250944	-19.898740	-0.234146
12600.000006	-114.535671	-0.441614	-93.451257	-0.386518	5.738119	0.235490	-19.876858	-0.234608
12800.000006	-112.971932	0.458149	-93.506820	-0.400289	5.635581	0.223362	-19.856059	-0.235071
13000.000006	-112.967743	-0.463665	-93.672239	-0.411774	5.540502	0.213239	-19.835430	-0.235529
13200.000006	-119.021320	0.218993	-93.726233	-0.415473	5.428807	0.204758	-19.813432	-0.235995
13400.000006	-110.317642	0.384430	-93.931077	-0.430951	5.304205	0.198067	-19.794879	-0.236452
13700.000006	-113.341967	0.438144	-93.171807	-0.439378	5.198909	0.190548	-19.766063	-0.237139
13900.000006	-112.549106	-0.499514	-92.821733	-0.441074	5.156474	0.185935	-19.747277	-0.237597
14100.000006	-109.492365	0.395165	-92.755909	-0.456655	5.142542	0.181688	-19.728771	-0.238057
14400.000007	-113.196144	0.317776	-92.262526	-0.456837	5.095947	0.174648	-19.701222	-0.238735
14600.000007	-119.823984	0.324545	-92.722022	-0.455397	5.046452	0.170991	-19.683713	-0.239195
14800.000007	-115.197898	0.354713	-92.624901	-0.455150	5.020054	0.167624	-19.666356	-0.239647
15100.000007	-113.423137	0.478027	-92.026773	-0.470029	4.997676	0.162610	-19.640905	-0.240330
15300.000007	-112.719026	0.420271	-91.954172	-0.470551	4.988446	0.159320	-19.624421	-0.240783
15600.000007	-113.539819	0.330364	-91.227269	-0.476404	4.977974	0.154493	-19.599771	-0.241467
15900.000007	-109.446626	0.369707	-91.420497	-0.482733	4.970038	0.149779	-19.576188	-0.242145
16100.000007	-111.846315	-0.497308	-90.728212	-0.495571	4.966266	0.146611	-19.560796	-0.242592
16400.000008	-109.120973	0.378712	-90.655444	-0.493488	4.956557	0.141936	-19.538094	-0.243271
16700.000008	-108.746374	0.365030	-90.528305	0.494664	4.948372	0.137477	-19.515785	-0.243946
16900.000008	-109.468620	0.303190	-90.574051	0.490996	4.943577	0.134483	-19.501366	-0.244394
17200.000008	-109.526787	0.287904	-90.142582	0.485947	4.938859	0.129983	-19.480092	-0.245065
17500.000008	-108.616340	0.371085	-90.197633	0.480914	4.919098	0.125534	-19.459544	-0.245738
17800.000008	-116.059931	0.356767	-90.055602	0.473084	4.899830	0.121569	-19.439224	-0.246410
18100.000008	-110.045113	0.381101	-89.112823	0.477542	4.893770	0.117589	-19.419752	-0.247079
18400.000008	-112.124358	0.308887	-89.748668	0.480682	4.892185	0.113732	-19.399798	-0.247750
18700.000009	-110.927592	0.323467	-89.506773	0.471677	4.887893	0.109875	-19.380810	-0.248420
19000.000009	-114.685547	0.225705	-89.283750	0.467608	4.916229	0.106624	-19.362310	-0.249087
19300.000009	-108.690364	0.337410	-88.860652	0.458305	5.017549	0.103000	-19.344232	-0.249758
19700.000009	-108.598258	0.294676	-88.268022	0.453605	5.223329	0.093059	-19.321082	-0.250646
20000.000009	-105.889878	0.361998	-88.295270	0.436671	4.952018	0.084829	-19.303922	-0.251314
