% f149.txt
% Date Thu, Jun 24, 2021 5:18 PM
% Ascending Sine seq
% Response spectrum
% Stim level (V pk) 0.500, 0 dB filter gain, 120.0 dB attenuation
% Freq [Hz]	Ch0 Mag [dB]	Ch0 Phase [cyc]	Ch1 Mag [dB]	Ch1 Phase [cyc]	Ch2 Mag [dB]	Ch2 Phase [cyc]	Ch3 Mag [dB]	Ch3 Phase [cyc]
%%end
100.000000	9.468831	0.164627	-112.775238	-0.279600	-28.338255	-0.386438	-23.018745	-0.268316
200.000000	-1.711987	0.009079	-114.471042	-0.475607	-21.935419	-0.476076	-25.225305	-0.254870
300.000000	-6.203231	-0.014024	-101.060541	-0.416869	-18.480411	0.465006	-25.226389	-0.245867
400.000000	-9.221240	-0.033616	-114.986186	0.371846	-17.331973	0.423523	-25.144221	-0.239398
500.000000	-11.809372	-0.044384	-117.100085	0.350258	-16.051091	0.405416	-25.026404	-0.234818
600.000000	-13.138740	-0.041371	-117.758373	-0.169232	-15.368506	0.385875	-24.891943	-0.231529
700.000000	-14.120195	-0.061185	-116.578380	-0.480515	-14.875468	0.371360	-24.778149	-0.228714
800.000000	-15.733929	-0.080172	-115.366327	0.434909	-14.577433	0.360825	-24.655575	-0.226060
900.000000	-17.090745	-0.090670	-117.902443	0.249701	-14.282828	0.352495	-24.527953	-0.223936
1000.000000	-17.974751	-0.099452	-121.180752	-0.107594	-14.010806	0.345082	-24.403554	-0.222127
1100.000001	-19.060377	-0.109129	-126.527928	0.311455	-13.830982	0.339035	-24.283621	-0.220585
1200.000001	-19.984228	-0.118389	-121.735805	-0.089927	-13.637013	0.333836	-24.166974	-0.219265
1300.000001	-20.883771	-0.127061	-127.883745	-0.135284	-13.459337	0.328974	-24.052904	-0.218126
1400.000001	-21.752713	-0.131948	-123.891708	0.121333	-13.300978	0.325428	-23.941617	-0.217157
1500.000001	-22.160383	-0.137108	-111.003965	0.081083	-13.154951	0.321689	-23.836265	-0.216367
1600.000001	-22.723051	-0.151003	-129.104937	0.079386	-13.014902	0.317854	-23.735434	-0.215632
1700.000001	-23.336593	-0.157149	-120.248342	0.198540	-12.900793	0.315105	-23.636653	-0.215027
1800.000001	-23.881241	-0.168928	-136.993592	-0.477601	-12.753169	0.311818	-23.543007	-0.214499
1900.000001	-24.532257	-0.177890	-115.374764	0.393436	-12.667327	0.309110	-23.452111	-0.214058
2000.000001	-25.129125	-0.185695	-117.390176	-0.154448	-12.550453	0.306160	-23.363219	-0.213689
2100.000001	-25.702467	-0.192566	-120.423096	-0.202095	-12.431442	0.303851	-23.277241	-0.213396
2200.000001	-26.153245	-0.197568	-118.017790	-0.000501	-12.344896	0.301215	-23.194617	-0.213169
2300.000001	-26.517066	-0.205498	-125.888516	-0.090462	-12.247477	0.298956	-23.115911	-0.212978
2400.000001	-26.789967	-0.213205	-118.596406	-0.442049	-12.158921	0.296701	-23.039228	-0.212830
2500.000001	-27.245517	-0.223479	-118.141025	-0.280711	-12.071673	0.294288	-22.965579	-0.212715
2600.000001	-27.709719	-0.231354	-119.392693	-0.143280	-11.995079	0.292183	-22.895340	-0.212643
2700.000001	-28.127450	-0.238566	-117.921900	-0.097548	-11.906295	0.290009	-22.827463	-0.212604
2800.000001	-28.452968	-0.244814	-123.636779	0.159148	-11.832816	0.287729	-22.760991	-0.212590
2900.000001	-28.506207	-0.258950	-118.956086	-0.011343	-11.771120	0.285572	-22.697236	-0.212611
3000.000001	-29.791763	-0.260127	-127.153601	-0.085617	-11.693761	0.283900	-22.635483	-0.212648
3100.000001	-29.813856	-0.263862	-118.888503	-0.487344	-11.626685	0.281863	-22.576726	-0.212698
3200.000001	-30.053907	-0.271294	-121.753158	-0.045882	-11.570111	0.279999	-22.519483	-0.212767
3300.000002	-30.470233	-0.277571	-114.089367	0.271147	-11.511953	0.277967	-22.463176	-0.212862
3400.000002	-30.874226	-0.282237	-118.031829	-0.224436	-11.438446	0.276249	-22.408179	-0.212968
3500.000002	-30.923926	-0.280340	-121.524807	0.144088	-11.392302	0.274264	-22.355447	-0.213091
3600.000002	-30.927837	-0.293934	-120.394972	0.210785	-11.334576	0.272331	-22.305266	-0.213222
3700.000002	-31.330257	-0.299611	-124.656546	-0.239675	-11.276042	0.270634	-22.256277	-0.213366
3800.000002	-31.649786	-0.305454	-114.773936	-0.437086	-11.220820	0.268748	-22.208122	-0.213525
3900.000002	-32.088347	-0.309683	-115.690570	0.183731	-11.169255	0.266953	-22.161211	-0.213698
4000.000002	-32.538899	-0.309704	-119.162636	0.177368	-11.124168	0.264902	-22.114693	-0.213883
4100.000002	-32.733396	-0.303092	-116.638162	0.042798	-11.081425	0.263240	-22.070533	-0.214100
4200.000002	-32.440419	-0.294615	-130.802838	0.301928	-11.033688	0.261389	-22.027906	-0.214357
4300.000002	-31.488945	-0.290752	-122.397023	0.380008	-10.988366	0.259504	-21.990025	-0.214621
4400.000002	-30.188678	-0.301900	-115.775257	0.004540	-10.951074	0.257813	-21.955043	-0.214833
4500.000002	-29.632531	-0.329440	-120.631647	0.268607	-10.922651	0.256007	-21.920509	-0.214983
4600.000002	-29.825839	-0.352661	-115.867011	0.106184	-10.888681	0.254411	-21.883656	-0.215118
4700.000002	-30.198566	-0.366331	-114.897909	0.084508	-10.846494	0.252597	-21.845497	-0.215282
4800.000002	-30.397565	-0.377411	-113.907245	-0.050208	-10.816484	0.251036	-21.808431	-0.215468
4900.000002	-30.509909	-0.389781	-123.074913	-0.163715	-10.787160	0.249315	-21.773471	-0.215660
5000.000002	-30.726761	-0.401092	-120.710213	-0.404686	-10.753871	0.247644	-21.738863	-0.215860
5100.000002	-30.843939	-0.410977	-111.222128	0.039147	-10.721816	0.246028	-21.704547	-0.216066
5200.000002	-30.980929	-0.420369	-111.278674	0.144478	-10.689883	0.244386	-21.670958	-0.216282
5300.000002	-30.956108	-0.431000	-118.482732	-0.110685	-10.665219	0.242723	-21.638615	-0.216504
5400.000002	-31.414404	-0.444819	-116.669579	-0.077630	-10.633113	0.241040	-21.606452	-0.216726
5500.000003	-31.483096	-0.448231	-126.266972	0.135638	-10.607273	0.239485	-21.575655	-0.216943
5600.000003	-31.581360	-0.460332	-122.011906	0.097941	-10.577584	0.237829	-21.545302	-0.217188
5700.000003	-32.370385	-0.469476	-119.504321	-0.171261	-10.547614	0.236173	-21.512359	-0.217459
5800.000003	-31.003686	-0.469825	-121.453473	-0.236835	-10.535656	0.234631	-21.494739	-0.217698
5900.000003	-31.517837	-0.485527	-125.767432	-0.029080	-10.509216	0.233077	-21.463152	-0.217884
6000.000003	-31.744707	-0.493669	-120.457410	-0.046784	-10.485728	0.231401	-21.433879	-0.218111
6100.000003	-31.709151	-0.499459	-117.265358	-0.121951	-10.460289	0.229861	-21.406744	-0.218335
6200.000003	-31.640943	0.492190	-116.377978	0.245692	-10.444127	0.228319	-21.380080	-0.218567
6300.000003	-31.483773	0.483279	-119.296747	0.009252	-10.420151	0.226813	-21.354500	-0.218801
6400.000003	-31.250406	0.473475	-114.326058	0.033704	-10.401770	0.225201	-21.329025	-0.219041
6500.000003	-30.987758	0.462737	-116.112635	0.008369	-10.376978	0.223606	-21.303441	-0.219277
6600.000003	-30.645433	0.447788	-126.748693	0.354373	-10.355698	0.222054	-21.278757	-0.219510
6700.000003	-30.378699	0.430839	-119.398496	-0.062468	-10.337492	0.220402	-21.254304	-0.219767
6800.000003	-30.103374	0.409876	-122.590528	-0.064119	-10.316337	0.218599	-21.229913	-0.220017
7000.000003	-30.034132	0.356635	-116.080124	-0.101256	-10.307513	0.216000	-21.186413	-0.220568
7100.000003	-30.542443	0.318788	-119.454033	0.287196	-10.259180	0.214176	-21.162774	-0.220763
7200.000003	-32.004818	0.280860	-114.095561	0.120385	-10.245896	0.212469	-21.140027	-0.220994
7300.000003	-34.535943	0.262927	-119.159743	0.067092	-10.232128	0.210646	-21.117557	-0.221219
7400.000003	-36.128387	0.250925	-114.596104	-0.107814	-10.230903	0.209091	-21.096191	-0.221454
7500.000003	-39.765620	0.228864	-122.324621	-0.026902	-10.227813	0.207355	-21.074564	-0.221690
7700.000004	-38.275972	0.386367	-113.251966	-0.040258	-10.222901	0.204513	-21.031312	-0.222164
7800.000004	-37.546093	0.367113	-120.969499	-0.341831	-10.229102	0.203300	-21.010455	-0.222405
7900.000004	-37.341549	0.356938	-120.208883	0.036570	-10.228970	0.202089	-20.989374	-0.222634
8100.000004	-37.038461	0.353435	-116.096160	-0.123944	-10.182092	0.199673	-20.949724	-0.223113
8200.000004	-36.734254	0.353636	-114.677403	0.167115	-10.146524	0.197906	-20.929715	-0.223349
8300.000004	-36.509861	0.347101	-115.619472	-0.223223	-10.137466	0.196184	-20.910016	-0.223590
8500.000004	-35.987659	0.339618	-118.873623	-0.176960	-10.115679	0.193167	-20.871917	-0.224074
8600.000004	-35.601122	0.334149	-118.004972	0.087224	-10.108035	0.191663	-20.853221	-0.224312
8800.000004	-35.036481	0.321485	-119.943034	0.277782	-10.100017	0.188529	-20.816895	-0.224796
8900.000004	-34.792845	0.318541	-112.185663	-0.281636	-10.096108	0.187048	-20.798999	-0.225034
9100.000004	-34.013441	0.304552	-123.805724	0.118439	-10.078986	0.183931	-20.764318	-0.225513
9200.000004	-33.796423	0.293284	-116.005284	-0.312219	-10.075483	0.182435	-20.746673	-0.225755
9400.000004	-33.470081	0.283460	-113.699029	-0.097265	-10.068674	0.179321	-20.714104	-0.226234
9500.000004	-32.999062	0.281978	-126.324603	-0.197449	-10.075117	0.177756	-20.698098	-0.226476
9700.000004	-32.076520	0.265264	-122.683896	-0.010737	-10.102281	0.174821	-20.666423	-0.226952
9800.000005	-31.641925	0.257121	-123.629350	-0.176667	-10.106010	0.173652	-20.650680	-0.227189
10000.000005	-30.702620	0.245540	-119.386551	0.184214	-10.089654	0.170935	-20.621041	-0.227663
10200.000005	-29.500108	0.228818	-120.025696	0.092454	-10.092284	0.168091	-20.591299	-0.228142
10300.000005	-28.613093	0.219788	-114.649377	-0.003018	-10.105915	0.166924	-20.576206	-0.228378
10500.000005	-27.061519	0.199079	-111.691551	-0.321899	-10.087262	0.163767	-20.547560	-0.228856
10700.000005	-25.272631	0.176687	-120.792674	0.014291	-10.106169	0.161442	-20.519631	-0.229332
10900.000005	-22.943022	0.148082	-113.502754	0.039608	-10.128569	0.158764	-20.491732	-0.229817
11000.000005	-21.460305	0.130240	-116.632542	-0.090177	-10.109875	0.157641	-20.477031	-0.230065
11200.000005	-17.682876	0.072733	-124.616586	0.003070	-10.102782	0.155035	-20.450470	-0.230592
11400.000005	-14.300632	-0.058216	-123.063039	0.149044	-10.076124	0.152007	-20.429468	-0.231180
11600.000005	-16.784322	-0.203171	-116.058902	-0.039761	-10.101074	0.148827	-20.412157	-0.231549
11800.000005	-20.952451	-0.274928	-116.686266	-0.121467	-10.118024	0.145808	-20.387059	-0.231939
12000.000006	-24.168934	-0.313308	-116.410471	0.309465	-10.143329	0.143111	-20.362397	-0.232382
12200.000006	-26.728795	-0.340148	-123.478166	-0.028708	-10.154625	0.140485	-20.338123	-0.232832
12400.000006	-28.788151	-0.361610	-114.102339	-0.102624	-10.163781	0.137798	-20.315400	-0.233290
12600.000006	-30.592338	-0.380979	-113.125831	-0.107306	-10.188335	0.135052	-20.293556	-0.233747
12800.000006	-32.235311	-0.397791	-113.818939	-0.179533	-10.201696	0.132406	-20.271833	-0.234208
13000.000006	-33.953519	-0.409947	-112.095911	-0.125106	-10.219728	0.129557	-20.250939	-0.234667
13200.000006	-35.687328	-0.412534	-120.276486	-0.090253	-10.235845	0.126844	-20.229445	-0.235122
13400.000006	-36.199147	-0.397199	-112.435865	-0.156921	-10.258528	0.124140	-20.210020	-0.235581
13700.000006	-36.394938	-0.420986	-113.922082	-0.178635	-10.294817	0.119985	-20.180086	-0.236268
13900.000006	-36.140842	-0.420258	-113.224126	-0.131272	-10.322374	0.117402	-20.160433	-0.236727
14100.000006	-35.087683	-0.447260	-118.669979	-0.170397	-10.350327	0.114860	-20.141993	-0.237177
14400.000007	-36.006798	0.499729	-111.404860	-0.059732	-10.392985	0.111015	-20.114283	-0.237854
14600.000007	-36.819670	0.476225	-116.938169	-0.136664	-10.416846	0.108531	-20.096453	-0.238313
14800.000007	-37.377828	0.455410	-112.982526	-0.238589	-10.443200	0.106009	-20.078813	-0.238767
15100.000007	-38.405736	0.429789	-118.415645	-0.193137	-10.481899	0.102068	-20.052766	-0.239442
15300.000007	-38.912790	0.414097	-126.100784	-0.226869	-10.511320	0.099472	-20.035973	-0.239894
15600.000007	-39.713459	0.389022	-121.365386	-0.073534	-10.553571	0.095709	-20.011157	-0.240577
15900.000007	-40.989845	0.354029	-117.925701	-0.204654	-10.600688	0.091810	-19.986781	-0.241248
16100.000007	-41.619367	0.348876	-126.723669	-0.383180	-10.639227	0.089359	-19.970687	-0.241696
16400.000008	-42.227526	0.331054	-115.128066	-0.120438	-10.693368	0.085673	-19.947002	-0.242367
16700.000008	-41.414394	0.315175	-116.683614	-0.302827	-10.750438	0.082067	-19.924265	-0.243042
16900.000008	-41.807271	0.294658	-112.194348	0.055012	-10.780635	0.079646	-19.909273	-0.243488
17200.000008	-41.989945	0.268823	-119.186536	-0.267589	-10.844557	0.076071	-19.893317	-0.244145
17500.000008	-42.482514	0.255607	-111.962922	-0.257134	-10.895418	0.072438	-19.860190	-0.244838
17800.000008	-41.914465	0.222945	-115.725500	-0.312988	-10.951722	0.068967	-19.844533	-0.245495
18100.000008	-41.768577	0.178327	-112.177944	-0.113934	-11.001504	0.065346	-19.812834	-0.246187
18400.000008	-42.543801	0.129040	-112.718713	-0.082141	-11.067707	0.061764	-19.788593	-0.246863
18700.000009	-46.264499	0.125833	-114.059224	-0.111319	-11.143813	0.058234	-19.766178	-0.247538
19000.000009	-46.937447	0.113961	-116.578152	-0.362080	-11.200371	0.055561	-19.744898	-0.248204
19300.000009	-47.218528	0.123464	-118.680213	-0.181882	-11.240458	0.052294	-19.724473	-0.248871
19700.000009	-44.038349	0.092848	-113.008877	-0.013757	-11.292540	0.047058	-19.699122	-0.249758
20000.000009	-44.417002	0.048014	-116.261253	-0.257909	-11.383089	0.043518	-19.680459	-0.250430
