% f3235.txt
% Date Thu, Jun 24, 2021 7:48 PM
% Ascending Sine seq
% Response spectrum
% Stim level (V pk) 0.500, 0 dB filter gain, 120.0 dB attenuation
% Freq [Hz]	Ch0 Mag [dB]	Ch0 Phase [cyc]	Ch1 Mag [dB]	Ch1 Phase [cyc]	Ch2 Mag [dB]	Ch2 Phase [cyc]	Ch3 Mag [dB]	Ch3 Phase [cyc]
%%end
100.000000	-121.243004	0.421561	-12.968608	0.452422	-98.206596	-0.148348	-23.778629	-0.268883
200.000000	-118.320346	0.397596	-19.309823	0.297139	-109.089150	-0.326829	-26.206768	-0.254874
300.000000	-106.801476	0.139744	-20.125909	0.278327	-94.480848	-0.339783	-26.125340	-0.245602
400.000000	-121.655607	-0.380244	-20.957328	0.259536	-114.203200	0.480028	-26.470873	-0.239072
500.000000	-119.586547	-0.477483	-21.305050	0.249637	-119.995073	0.201544	-26.339042	-0.234386
600.000000	-123.606521	-0.242475	-21.055628	0.252452	-109.801258	0.041537	-26.194706	-0.231002
700.000000	-116.655134	-0.110081	-20.320168	0.241515	-115.148049	-0.136087	-26.009190	-0.228135
800.000000	-117.290422	0.231360	-20.249882	0.223432	-117.122379	-0.176056	-25.395008	-0.225649
900.000000	-114.116183	0.484641	-20.454693	0.217097	-108.243433	0.308535	-25.337558	-0.223442
1000.000000	-119.575874	0.251368	-20.765846	0.211570	-138.720297	-0.318055	-25.209984	-0.221593
1100.000001	-122.711379	0.167420	-20.678031	0.207630	-122.963119	0.100101	-25.083989	-0.220020
1200.000001	-135.053502	0.064629	-20.636869	0.202861	-129.189186	0.241604	-24.962722	-0.218658
1300.000001	-117.412068	0.464208	-20.445016	0.196176	-108.773513	0.225928	-24.845765	-0.217497
1400.000001	-122.951392	0.090014	-20.312575	0.183871	-123.236244	-0.073620	-24.731126	-0.216496
1500.000001	-141.774242	-0.447263	-21.456624	0.179707	-115.536280	-0.003775	-24.622935	-0.215687
1600.000001	-120.899442	-0.023567	-21.264066	0.186238	-115.192143	0.163147	-24.519331	-0.214920
1700.000001	-118.900219	0.151500	-20.966531	0.188197	-120.433485	0.279182	-24.417719	-0.214298
1800.000001	-122.704240	0.429846	-20.720282	0.182175	-122.296436	0.483595	-24.320782	-0.213740
1900.000001	-117.213944	0.046068	-20.616306	0.177705	-132.167017	0.297534	-24.226900	-0.213279
2000.000001	-116.294917	0.237346	-20.704851	0.174262	-117.229792	0.013662	-24.136130	-0.212895
2100.000001	-115.196269	0.026493	-20.653407	0.174806	-122.419003	0.350396	-24.048322	-0.212581
2200.000001	-119.177497	-0.003598	-20.396096	0.175998	-114.159453	0.067856	-23.963708	-0.212336
2300.000001	-120.621704	-0.042472	-20.087225	0.172711	-120.706966	0.154287	-23.883148	-0.212129
2400.000001	-120.151829	-0.046169	-19.779181	0.170044	-116.639810	0.125895	-23.805430	-0.211963
2500.000001	-117.236550	-0.322929	-19.741813	0.165503	-119.876234	-0.284615	-23.890262	-0.211659
2600.000001	-136.930431	0.450726	-19.504729	0.162718	-112.583507	0.139838	-23.752220	-0.211639
2700.000001	-121.585368	0.439020	-19.297824	0.160989	-120.495745	0.206380	-23.678474	-0.211584
2800.000001	-120.372645	0.215883	-19.018576	0.160584	-121.179102	0.128222	-23.609272	-0.211565
2900.000001	-120.463703	0.270270	-18.672266	0.159569	-117.254896	-0.055559	-23.614781	-0.211492
3000.000001	-126.550803	0.048256	-17.985053	0.156765	-118.080378	0.124388	-23.383598	-0.211715
3100.000001	-119.997490	0.273205	-17.296971	0.151599	-119.942058	0.398584	-23.064056	-0.212061
3200.000001	-119.859757	0.136273	-16.876126	0.147812	-116.493975	0.217005	-23.003904	-0.212129
3300.000002	-112.153968	0.185177	-16.396490	0.144496	-134.272496	0.330032	-22.930838	-0.212229
3400.000002	-122.920498	-0.019868	-15.841674	0.140904	-116.165861	0.360909	-22.868443	-0.212340
3500.000002	-129.364795	-0.156877	-15.212157	0.136145	-122.489013	-0.248483	-22.808716	-0.212463
3600.000002	-125.441162	-0.067763	-14.549192	0.131565	-130.150969	-0.136174	-22.750754	-0.212593
3700.000002	-126.810783	-0.457356	-13.792078	0.126082	-116.107048	0.083944	-22.696855	-0.212738
3800.000002	-125.956559	-0.448668	-12.926037	0.119106	-113.283746	0.143382	-22.645536	-0.212892
3900.000002	-119.310721	-0.034244	-11.953514	0.110819	-117.904781	0.048987	-22.595473	-0.213059
4000.000002	-125.102659	0.123226	-10.772484	0.099851	-124.607653	0.384913	-22.548143	-0.213240
4100.000002	-123.227203	-0.408482	-9.443693	0.083659	-119.431486	0.391114	-22.501797	-0.213431
4200.000002	-118.123381	0.341724	-7.939705	0.060045	-111.670051	0.147617	-22.457239	-0.213646
4300.000002	-118.733508	-0.119583	-6.452817	0.023757	-115.860323	0.243611	-22.414574	-0.213898
4400.000002	-126.103209	-0.255901	-5.245262	-0.026125	-113.655894	0.068256	-22.375655	-0.214173
4500.000002	-116.292527	-0.280154	-5.096939	-0.091134	-111.171570	0.124078	-22.342212	-0.214431
4600.000002	-112.906987	-0.241861	-6.534053	-0.148184	-111.451741	0.077855	-22.307480	-0.214576
4700.000002	-118.131668	-0.175869	-8.712282	-0.183355	-122.804451	0.015726	-22.270468	-0.214706
4800.000002	-123.107385	-0.392292	-10.560748	-0.200365	-120.161171	-0.000340	-22.233530	-0.214873
4900.000002	-123.083978	0.377436	-12.340032	-0.217128	-115.725870	0.069589	-22.196877	-0.215046
5000.000002	-129.009910	0.254364	-14.221138	-0.223877	-130.643961	0.472776	-22.161734	-0.215231
5100.000002	-116.637405	0.309684	-15.932912	-0.222420	-135.061356	0.251926	-22.126456	-0.215430
5200.000002	-115.739327	-0.258073	-17.437788	-0.213752	-114.193930	0.084717	-22.092133	-0.215638
5300.000002	-126.968323	-0.264848	-18.644765	-0.198851	-113.598181	0.195540	-22.058540	-0.215851
5400.000002	-121.403683	0.190153	-19.334123	-0.177837	-120.949958	-0.067078	-22.026093	-0.216069
5500.000003	-125.850913	-0.015623	-19.409531	-0.157888	-117.385652	0.069676	-21.994257	-0.216292
5600.000003	-142.833221	0.075201	-19.049305	-0.140625	-122.382227	0.152138	-21.962003	-0.216522
5700.000003	-116.469038	0.153557	-18.180876	-0.131025	-111.796596	0.096602	-21.928601	-0.216790
5800.000003	-115.675987	0.469669	-17.003571	-0.128363	-117.646938	0.498716	-21.910356	-0.217039
5900.000003	-123.624678	0.375387	-16.071108	-0.145841	-123.733708	0.177276	-21.878194	-0.217223
6000.000003	-120.481727	0.079368	-15.855631	-0.168371	-112.550427	0.087453	-21.849307	-0.217451
6100.000003	-122.503276	-0.087104	-16.277077	-0.187587	-114.470521	0.068110	-21.821583	-0.217671
6200.000003	-116.822120	0.212167	-17.074434	-0.199887	-114.576358	0.099123	-21.794310	-0.217898
6300.000003	-120.080569	-0.424561	-18.012189	-0.202767	-118.146049	-0.125549	-21.766655	-0.218127
6400.000003	-121.246869	0.460455	-18.850370	-0.195694	-112.642129	0.097871	-21.740152	-0.218355
6500.000003	-120.158729	0.162615	-19.281318	-0.179426	-115.389601	-0.102045	-21.714248	-0.218590
6600.000003	-120.327679	-0.143985	-18.983720	-0.159076	-112.882778	0.133601	-21.688305	-0.218829
6700.000003	-126.471580	0.107300	-17.959226	-0.145396	-111.431615	0.074111	-21.663358	-0.219069
6800.000003	-118.412937	-0.059810	-16.560685	-0.142263	-118.824465	0.072977	-21.638698	-0.219309
7000.000003	-117.667339	0.217932	-13.841189	-0.169488	-120.664567	0.107535	-21.593754	-0.219865
7100.000003	-122.660056	0.496822	-12.937289	-0.198352	-111.096277	0.099148	-21.570587	-0.220045
7200.000003	-121.439758	-0.227002	-12.824249	-0.231244	-114.263665	0.086649	-21.547731	-0.220272
7300.000003	-125.445068	-0.075722	-13.507615	-0.255896	-110.430084	0.006666	-21.524786	-0.220504
7400.000003	-119.875661	-0.350194	-13.855518	-0.263310	-114.705051	0.082603	-21.503041	-0.220739
7500.000003	-129.331799	-0.011563	-13.955343	-0.278253	-111.330651	0.067729	-21.481364	-0.220974
7700.000004	-123.176892	0.375735	-14.611080	-0.307104	-117.627952	0.159193	-21.438091	-0.221444
7800.000004	-118.857252	-0.026759	-15.107456	-0.318078	-111.683124	0.008565	-21.418070	-0.221686
7900.000004	-118.801711	0.249523	-15.536695	-0.326234	-111.515207	0.033067	-21.398093	-0.221917
8100.000004	-128.519544	0.409410	-16.321899	-0.340500	-111.767184	0.048884	-21.357947	-0.222388
8200.000004	-133.184702	-0.195466	-16.692774	-0.345715	-111.171462	0.076953	-21.338287	-0.222624
8300.000004	-116.566390	0.272715	-17.009393	-0.349964	-113.719271	0.115959	-21.319154	-0.222860
8500.000004	-119.916549	0.247988	-17.505606	-0.356200	-115.170331	0.025911	-21.281322	-0.223338
8600.000004	-114.896461	0.265121	-17.652216	-0.359651	-115.248707	-0.055802	-21.262529	-0.223578
8800.000004	-119.362954	-0.026021	-17.953956	-0.365410	-113.404498	0.030700	-21.226367	-0.224054
8900.000004	-127.156685	-0.468071	-18.040895	-0.367521	-110.231252	0.050505	-21.209348	-0.224292
9100.000004	-123.793593	-0.416391	-18.056060	-0.371021	-113.934962	0.107182	-21.174971	-0.224765
9200.000004	-116.077898	-0.417390	-17.935849	-0.373179	-113.628280	0.051266	-21.158249	-0.225003
9400.000004	-114.685671	-0.110900	-17.629296	-0.381389	-107.183262	0.002115	-21.125223	-0.225477
9500.000004	-119.197180	0.094687	-17.546332	-0.386844	-109.138201	0.007520	-21.109386	-0.225722
9700.000004	-117.455521	0.169153	-17.266695	-0.392396	-110.789419	0.098793	-21.077660	-0.226191
9800.000005	-134.980964	0.439635	-17.000587	-0.396975	-111.360778	0.037025	-21.061805	-0.226427
10000.000005	-117.934499	0.149071	-16.592058	-0.406529	-109.415195	0.026366	-21.031122	-0.226900
10200.000005	-122.827978	-0.481791	-15.776339	-0.410065	-113.032407	-0.017421	-21.001294	-0.227375
10300.000005	-126.036073	-0.254865	-15.088978	-0.413137	-109.524539	0.003378	-20.987302	-0.227608
10500.000005	-115.135494	0.163766	-13.327291	-0.428522	-109.909118	-0.019814	-20.958772	-0.228085
10700.000005	-114.166756	0.108598	-11.137690	-0.456378	-106.192462	-0.126185	-20.930411	-0.228557
10900.000005	-119.575269	0.042746	-8.707501	0.493808	-105.823407	-0.100377	-20.902734	-0.229051
11000.000005	-127.227063	-0.021046	-7.630298	0.457844	-105.052326	-0.193143	-20.888253	-0.229316
11200.000005	-122.534110	0.189787	-6.406684	0.372643	-104.633373	-0.250004	-20.862999	-0.229824
11400.000005	-119.871560	-0.465024	-6.226985	0.265173	-107.538275	-0.421830	-20.841335	-0.230350
11600.000005	-119.679867	-0.005522	-9.191731	0.155835	-109.872038	0.459521	-20.822139	-0.230750
11800.000005	-118.069410	0.382820	-13.659646	0.086300	-114.686956	0.179740	-20.797849	-0.231149
12000.000006	-118.497749	-0.285513	-18.730145	0.053754	-115.695538	0.208655	-20.772530	-0.231563
12200.000006	-127.862370	0.121584	-22.543224	0.062432	-116.325909	0.295451	-20.748800	-0.232031
12400.000006	-133.873721	-0.287432	-24.431486	0.071470	-117.603050	0.221205	-20.725546	-0.232488
12600.000006	-121.956751	-0.117680	-25.973240	0.064166	-114.107804	0.135597	-20.702835	-0.232940
12800.000006	-123.567672	-0.082097	-27.729992	0.060155	-111.154356	0.084971	-20.680989	-0.233400
13000.000006	-124.993918	0.090612	-29.105618	0.062277	-136.254995	0.403849	-20.658959	-0.233856
13200.000006	-127.358131	0.436472	-29.888355	0.064659	-121.675041	0.013247	-20.639479	-0.234321
13400.000006	-132.226711	-0.162325	-30.206379	0.063834	-112.587063	0.015442	-20.652265	-0.234700
13700.000006	-118.525709	-0.488840	-29.927727	0.036407	-113.305742	0.064861	-20.620740	-0.235387
13900.000006	-113.799985	-0.141499	-30.254657	0.001211	-108.641505	0.116708	-20.600254	-0.235838
14100.000006	-124.509549	-0.445666	-31.971521	-0.036322	-111.252317	0.093512	-20.580883	-0.236296
14400.000007	-119.283290	0.062285	-34.814665	-0.044093	-108.761291	0.140281	-20.552566	-0.236970
14600.000007	-123.996879	0.401673	-35.430393	-0.041736	-109.382956	0.094202	-20.533743	-0.237427
14800.000007	-118.332241	-0.109023	-35.922791	-0.052865	-108.895278	0.113267	-20.498019	-0.237912
15100.000007	-119.503042	-0.301975	-37.444187	-0.058989	-110.320676	0.095891	-20.467440	-0.238597
15300.000007	-116.329377	-0.032534	-37.833740	-0.054752	-108.434600	0.062055	-20.450059	-0.239041
15600.000007	-125.989930	-0.150901	-38.002133	-0.058536	-109.289949	0.075305	-20.424368	-0.239717
15900.000007	-131.844826	-0.131953	-38.322102	-0.062555	-111.691297	0.072521	-20.399092	-0.240388
16100.000007	-122.014065	-0.126603	-38.393374	-0.064709	-106.941147	0.050244	-20.383176	-0.240836
16400.000008	-119.720238	-0.069008	-38.440499	-0.067537	-109.919503	0.068096	-20.359120	-0.241502
16700.000008	-119.972724	0.383991	-38.429309	-0.070488	-107.616001	0.107060	-20.335719	-0.242172
16900.000008	-121.637946	-0.213021	-38.464140	-0.072526	-110.115971	0.104636	-20.320745	-0.242619
17200.000008	-119.838893	0.272550	-38.372521	-0.075445	-110.980408	0.073858	-20.298783	-0.243284
17500.000008	-119.744279	0.119788	-38.079528	-0.076112	-109.546151	0.066843	-20.276893	-0.243950
17800.000008	-119.187724	-0.475428	-38.306733	-0.076487	-110.054002	0.098052	-20.255701	-0.244621
18100.000008	-124.628007	-0.311363	-38.202688	-0.072477	-106.990283	0.063529	-20.234552	-0.245283
18400.000008	-120.256702	-0.117261	-37.711719	-0.055461	-111.033336	0.032967	-20.214322	-0.245948
18700.000009	-117.494693	0.150933	-36.241658	-0.052339	-107.708514	0.098003	-20.194430	-0.246602
19000.000009	-120.464174	-0.328597	-34.818177	-0.061719	-109.584616	0.081387	-20.174934	-0.247270
19300.000009	-116.550670	-0.380691	-34.010769	-0.093748	-107.779971	0.042522	-20.156210	-0.247932
19700.000009	-122.280744	-0.241021	-35.738012	-0.108175	-109.129948	0.103262	-20.131632	-0.248811
20000.000009	-128.935308	-0.072758	-35.892515	-0.088519	-106.981347	0.089781	-20.113568	-0.249466
