% f202.txt
% Date Thu, Jul 29, 2021 8:43 PM
% Ascending Sine seq
% Response spectrum
% Stim level (V pk) 0.500, 0 dB filter gain, 120.0 dB attenuation
% Freq [Hz]	Ch0 Mag [dB]	Ch0 Phase [cyc]	Ch1 Mag [dB]	Ch1 Phase [cyc]	Ch2 Mag [dB]	Ch2 Phase [cyc]	Ch3 Mag [dB]	Ch3 Phase [cyc]
%%end
200.000000	-25.613720	-0.257193	-50.865392	-0.195570	-11.516598	0.328933	0.207563	0.049698
220.000000	-25.783789	-0.251006	-53.832067	-0.225885	-14.801623	0.298363	-3.652446	0.013645
240.000000	-25.776774	-0.246882	-56.124529	-0.230525	-17.818419	0.298504	-7.324049	0.000579
260.000000	-25.747157	-0.248907	-54.655527	-0.212904	-14.385570	0.311643	-5.675120	0.029969
280.000000	-26.017797	-0.245317	-55.907975	-0.252040	-17.671711	0.271357	-10.069579	0.007197
300.000000	-26.038617	-0.243685	-57.399293	-0.287124	-18.949778	0.291001	-9.476294	0.022730
320.000000	-26.036070	-0.242392	-59.821734	-0.264863	-18.896539	0.266032	-10.292738	-0.012349
340.000000	-26.020487	-0.240952	-60.310133	-0.260251	-19.995621	0.259808	-11.771779	-0.025076
380.000000	-25.972489	-0.238319	-63.157057	-0.256182	-22.910757	0.257046	-15.664191	-0.035378
400.000000	-25.968330	-0.239335	-56.488060	-0.259710	-17.713231	0.258252	-12.025897	-0.026009
420.000000	-25.931008	-0.237497	-60.010739	-0.261793	-20.399989	0.248297	-14.850208	-0.040502
460.000000	-25.904892	-0.236180	-58.787812	-0.264539	-20.386987	0.245755	-15.801566	-0.042929
500.000000	-25.862546	-0.234822	-59.369914	-0.267828	-20.681061	0.240123	-16.753761	-0.048402
520.000000	-25.855869	-0.234261	-59.985363	-0.266535	-20.799892	0.238230	-16.383908	-0.052184
560.000000	-25.798438	-0.232960	-59.717518	-0.271712	-21.600976	0.234730	-18.622211	-0.057503
600.000001	-25.766923	-0.231909	-61.373280	-0.269850	-21.743180	0.230417	-18.555208	-0.062312
640.000001	-25.736261	-0.231006	-60.911970	-0.266856	-20.858209	0.243408	-19.081366	-0.065871
700.000001	-25.680231	-0.229631	-64.183398	-0.259050	-21.460289	0.239150	-19.731472	-0.056765
740.000001	-25.632080	-0.229089	-58.606076	-0.212800	-19.497725	0.280153	-19.261342	-0.033905
800.000001	-25.590871	-0.227529	-59.558112	-0.276145	-22.116181	0.224062	-21.841982	-0.076917
860.000001	-25.544863	-0.226431	-61.173347	-0.276333	-21.902529	0.214562	-22.397019	-0.086948
920.000001	-25.490061	-0.225359	-68.873630	-0.196970	-21.865862	0.213281	-23.936285	-0.084379
980.000001	-25.469366	-0.224521	-57.989391	-0.292269	-21.000496	0.205813	-23.131151	-0.098781
1060.000001	-25.417743	-0.223443	-60.580308	-0.290856	-21.400626	0.179460	-23.322878	-0.107545
1140.000001	-25.343336	-0.222355	-60.208877	-0.293513	-22.168344	0.180975	-25.003110	-0.116053
1220.000001	-25.278686	-0.221474	-60.276157	-0.296269	-22.377613	0.184373	-25.213218	-0.122922
1300.000001	-25.194227	-0.220546	-59.072298	-0.312072	-29.936660	0.189771	-29.163954	-0.118276
1400.000001	-25.117241	-0.219776	-57.657755	-0.351775	-24.384573	0.224378	-27.477836	-0.119272
1500.000001	-25.039924	-0.219099	-64.568325	-0.351442	-20.334216	0.200511	-25.804095	-0.142144
1600.000001	-24.944239	-0.218277	-59.114921	-0.334603	-23.192968	0.186982	-28.145182	-0.153775
1720.000002	-24.842632	-0.217673	-49.856803	-0.482037	-22.738694	0.233354	-26.513369	-0.211640
1840.000002	-24.765791	-0.216998	-65.602862	0.247172	-20.417918	0.196031	-30.337305	-0.155305
1960.000002	-24.679015	-0.216371	-79.225738	-0.103968	-20.477026	0.178790	-29.314272	-0.168993
2120.000002	-24.564691	-0.215698	-71.422180	-0.140094	-20.503273	0.165264	-29.523756	-0.194366
2260.000002	-24.471684	-0.215216	-64.637463	-0.240076	-21.593150	0.164893	-31.489539	-0.207560
2420.000002	-24.372044	-0.214740	-63.833002	-0.263008	-20.823704	0.159839	-31.221202	-0.220510
2600.000002	-24.264739	-0.214287	-63.840406	-0.276926	-20.955691	0.153212	-32.024686	-0.234456
2780.000002	-24.165053	-0.213921	-63.580937	-0.280498	-20.748068	0.150183	-32.485740	-0.246826
2980.000003	-24.059527	-0.213583	-62.866783	-0.299476	-20.473628	0.147695	-32.800183	-0.260161
3200.000003	-23.958024	-0.213273	-61.781226	-0.315281	-19.760757	0.149113	-32.706604	-0.273125
3420.000003	-23.871158	-0.213008	-61.725476	-0.328992	-19.370216	0.140088	-33.047194	-0.295001
3680.000003	-23.778831	-0.212748	-60.776616	-0.364059	-18.969404	0.133342	-33.290061	-0.320162
3940.000003	-23.697056	-0.212536	-58.857018	-0.433885	-17.850007	0.136471	-32.656140	-0.349540
4220.000004	-23.620175	-0.212343	-69.520775	0.488773	-16.143165	0.139669	-33.655493	-0.345087
4520.000004	-23.529676	-0.212173	-63.067581	-0.363547	-13.564450	0.115051	-30.768592	-0.390626
4860.000004	-23.431392	-0.211993	-54.501681	-0.416078	-13.300040	0.111789	-32.035637	-0.415672
5200.000005	-23.317281	-0.211894	-49.498904	0.494998	-8.601091	0.099204	-27.992672	-0.451847
5580.000005	-23.201356	-0.212058	-44.633074	0.362332	-1.353671	0.035320	-22.208321	0.458616
5980.000005	-23.146740	-0.211790	-44.343006	0.061825	-4.173022	-0.263825	-26.065825	0.139325
6400.000006	-23.047073	-0.211487	-49.495284	0.006877	-8.522650	-0.282483	-31.442070	0.091709
6860.000006	-22.951904	-0.211271	-52.713315	-0.029254	-15.740237	-0.323001	-40.105575	0.009880
7360.000007	-22.866578	-0.211089	-52.315010	-0.053211	-20.924399	-0.250989	-47.919913	0.037058
7880.000007	-22.785217	-0.210906	-47.394128	-0.170213	-8.230877	-0.146184	-41.884662	0.154635
8440.000007	-22.697087	-0.210678	-59.800881	-0.198310	-12.582016	-0.390293	-45.426196	-0.015846
9060.000008	-22.614667	-0.210429	-58.959856	-0.125595	-20.249058	-0.420154	-49.082383	-0.087436
9700.000009	-22.535627	-0.210173	-55.763396	-0.150581	-13.866449	-0.321596	-56.534504	0.051327
10400.000009	-22.458728	-0.209885	-60.362856	-0.256181	-19.869739	0.361532	-46.237564	-0.156414
11140.000010	-22.388556	-0.209558	-60.872138	-0.172157	-25.863420	-0.395039	-55.088908	-0.214241
11940.000011	-22.313251	-0.209199	-59.141515	-0.185578	-19.708631	-0.389699	-59.059879	-0.148819
12800.000011	-22.238886	-0.208816	-56.695012	-0.236783	-12.702088	0.413973	-41.053045	-0.175677
