% f141.txt
% Date Thu, Jul 29, 2021 8:18 PM
% Ascending Sine seq
% Response spectrum
% Stim level (V pk) 0.500, 0 dB filter gain, 120.0 dB attenuation
% Freq [Hz]	Ch0 Mag [dB]	Ch0 Phase [cyc]	Ch1 Mag [dB]	Ch1 Phase [cyc]	Ch2 Mag [dB]	Ch2 Phase [cyc]	Ch3 Mag [dB]	Ch3 Phase [cyc]
%%end
200.000000	-26.371031	-0.259242	-49.789995	-0.167638	-93.260822	0.029565	1.538270	0.075719
220.000000	-26.756037	-0.252528	-53.626985	-0.216133	-94.429037	0.134734	-3.104236	0.025331
240.000000	-26.776411	-0.247674	-56.806332	-0.227176	-92.920772	0.115999	-7.260425	0.009644
260.000000	-26.681576	-0.248653	-55.555965	-0.200607	-90.492335	0.120762	-6.919659	0.053696
280.000000	-26.840546	-0.246578	-56.393877	-0.245937	-90.172402	0.108182	-8.895998	-0.006956
300.000000	-26.826156	-0.244558	-56.868795	-0.268171	-95.045554	0.132684	-11.474678	0.024215
320.000000	-26.826163	-0.243482	-59.622389	-0.299342	-88.444076	0.116959	-9.790685	0.006398
340.000000	-26.833978	-0.242149	-61.383883	-0.278401	-87.429450	0.114653	-11.405633	-0.018525
380.000000	-26.794974	-0.239531	-64.589887	-0.277665	-85.944373	0.102406	-15.718696	-0.032381
400.000000	-26.794334	-0.240827	-56.409669	-0.262305	-84.776386	0.097040	-11.517488	-0.023715
420.000000	-26.773490	-0.238838	-60.919769	-0.279141	-84.936948	0.099672	-14.817974	-0.038906
460.000000	-26.736751	-0.237584	-59.500610	-0.276925	-83.509240	0.089897	-15.878978	-0.043403
500.000000	-26.697536	-0.236301	-60.234418	-0.281844	-82.401497	0.081790	-16.882722	-0.048283
520.000000	-26.686531	-0.235790	-60.979361	-0.282175	-82.240716	0.082419	-16.271254	-0.051518
560.000000	-26.643077	-0.234564	-60.604328	-0.287318	-81.120974	0.073144	-18.494099	-0.056309
600.000001	-26.607576	-0.233585	-62.569332	-0.292076	-80.326163	0.073875	-18.440178	-0.062700
640.000001	-26.572958	-0.232761	-62.068537	-0.287948	-79.570027	0.066490	-18.955411	-0.067764
700.000001	-26.519009	-0.231477	-66.130210	-0.300669	-78.543140	0.058025	-19.459681	-0.060779
740.000001	-26.464165	-0.230934	-60.224944	-0.214955	-77.908880	0.053553	-19.855692	-0.018933
800.000001	-26.433486	-0.229515	-60.774479	-0.306977	-77.018862	0.048479	-21.870919	-0.076169
860.000001	-26.384225	-0.228494	-62.113222	-0.303897	-76.271420	0.044834	-22.483247	-0.085206
920.000001	-26.324024	-0.227425	-76.749182	-0.231604	-75.636245	0.039104	-24.686383	-0.086555
980.000001	-26.279693	-0.226712	-58.612961	-0.313951	-75.028072	0.033853	-23.132686	-0.099084
1060.000001	-26.214304	-0.225694	-61.230882	-0.323203	-74.267167	0.027984	-23.275244	-0.109441
1140.000001	-26.139367	-0.224637	-61.036240	-0.327286	-73.463385	0.023248	-25.145312	-0.117728
1220.000001	-26.072810	-0.223787	-61.027991	-0.332460	-72.861735	0.018248	-25.264609	-0.123856
1300.000001	-25.995516	-0.222859	-60.229695	-0.343818	-72.278385	0.013073	-29.307284	-0.120235
1400.000001	-25.923709	-0.222054	-58.252855	-0.370970	-71.591303	0.007531	-27.903355	-0.126784
1500.000001	-25.855525	-0.221297	-61.279269	-0.355171	-71.001176	0.002173	-26.240452	-0.142551
1600.000001	-25.771732	-0.220475	-65.365570	-0.240918	-70.418473	-0.002097	-32.054401	-0.085547
1720.000002	-25.684423	-0.219795	-50.218738	-0.452083	-69.763963	-0.007669	-26.215953	-0.197816
1840.000002	-25.617354	-0.219138	-61.549322	0.293013	-69.187877	-0.013136	-30.922334	-0.157446
1960.000002	-25.543244	-0.218433	-71.519965	0.399566	-68.654761	-0.017664	-29.974982	-0.161537
2120.000002	-25.446140	-0.217632	-72.920150	0.443147	-68.009697	-0.023802	-29.786330	-0.184920
2260.000002	-25.363613	-0.217027	-71.823494	-0.346750	-67.495972	-0.028746	-31.135886	-0.211349
2420.000002	-25.276342	-0.216417	-67.457155	-0.359728	-66.962177	-0.033906	-31.430781	-0.220921
2600.000002	-25.184441	-0.215796	-66.575311	-0.374211	-66.407566	-0.039861	-32.398889	-0.234472
2780.000002	-25.099793	-0.215240	-65.190128	-0.380904	-65.909697	-0.045022	-32.778713	-0.246477
2980.000003	-25.011778	-0.214682	-64.516200	-0.396074	-65.411125	-0.050871	-33.249386	-0.259769
3200.000003	-24.920099	-0.214128	-62.746862	-0.409528	-64.878414	-0.056932	-33.107494	-0.273830
3420.000003	-24.831548	-0.213617	-62.817868	-0.421896	-64.429748	-0.062657	-33.682667	-0.293892
3680.000003	-24.737136	-0.213064	-60.761934	-0.451322	-63.939173	-0.068748	-33.923304	-0.322531
3940.000003	-24.651262	-0.212561	-58.407486	-0.488693	-63.507019	-0.074533	-33.684062	-0.350339
4220.000004	-24.567627	-0.212060	-62.408541	0.346856	-63.094491	-0.080530	-34.406980	-0.331486
4520.000004	-24.479460	-0.211519	-65.039927	-0.463694	-62.667513	-0.086601	-32.503185	-0.381112
4860.000004	-24.392993	-0.210943	-56.337233	-0.452369	-62.291019	-0.093187	-33.649611	-0.407240
5200.000005	-24.306524	-0.210403	-51.851114	0.487145	-61.903677	-0.098899	-31.032200	-0.437597
5580.000005	-24.215222	-0.209866	-49.519764	0.384137	-61.556868	-0.105194	-28.702765	-0.484518
5980.000005	-24.139519	-0.209641	-41.859923	0.242527	-61.226255	-0.111514	-22.374359	0.319895
6400.000006	-24.064131	-0.208812	-46.162449	0.103346	-60.918259	-0.117282	-26.130164	0.173314
6860.000006	-23.969103	-0.207954	-52.116759	0.025966	-60.602910	-0.123267	-37.056051	0.028662
7360.000007	-23.874322	-0.207258	-53.642150	0.004931	-60.316190	-0.129289	-46.349481	0.046005
7880.000007	-23.779977	-0.206560	-51.515637	-0.025189	-60.050339	-0.135337	-46.138744	0.294146
8440.000007	-23.687340	-0.205825	-60.783793	-0.315865	-59.804660	-0.141055	-37.397832	-0.036661
9060.000008	-23.588154	-0.205022	-63.956116	-0.057291	-59.557061	-0.147036	-46.863515	-0.103206
9700.000009	-23.491705	-0.204228	-57.735709	-0.057826	-59.348775	-0.152724	-55.977935	0.088750
10400.000009	-23.393551	-0.203384	-63.890267	-0.407662	-59.139374	-0.158663	-42.607813	-0.177575
11140.000010	-23.293394	-0.202517	-71.162706	-0.167881	-58.953397	-0.164268	-47.714988	-0.210856
11940.000011	-23.190879	-0.201614	-61.577164	-0.150405	-58.795402	-0.169949	-49.672813	-0.122870
12800.000011	-23.085537	-0.200675	-72.977999	-0.419443	-58.644023	-0.175571	-45.295466	-0.349281
