% f547.txt
% Date Thu, Jul 15, 2021 4:53 PM
% Sine seq
% Response spectrum
% Stim level (V pk) 0.100, 0 dB filter gain, 120.0 dB attenuation
% Stim RMS (V) 0.000
% Freq [Hz]	Ch0 Mag [dB]	Ch0 Phase [cyc]	Ch1 Mag [dB]	Ch1 Phase [cyc]	Ch2 Mag [dB]	Ch2 Phase [cyc]	Ch3 Mag [dB]	Ch3 Phase [cyc]
%%end
50.000000	-124.487097	0.127213	-67.339889	-0.400123	-97.923967	-0.046964	-112.345119	-0.201211
100.000000	-119.339880	-0.279813	-50.686139	0.303026	-102.587463	-0.284705	-120.199958	0.251579
150.000000	-117.196707	-0.440807	-50.276289	-0.121502	-106.747440	0.296828	-126.608742	-0.176376
200.000000	-119.104784	-0.167248	-51.101249	0.031179	-112.193004	0.481806	-122.623348	0.427606
250.000000	-133.721752	-0.114954	-52.600641	0.027809	-115.000471	-0.115165	-122.931248	-0.160242
300.000000	-96.959527	-0.340622	-61.554850	0.458345	-110.978003	0.403200	-108.318981	0.026806
350.000000	-132.882354	-0.056774	-57.429464	-0.274080	-119.878053	0.451063	-121.001561	0.337647
400.000000	-116.945691	0.230886	-54.666382	-0.207097	-108.855478	0.364538	-120.919091	-0.383136
450.000000	-115.335845	-0.117932	-56.700146	-0.068037	-112.758393	-0.418889	-116.719807	-0.370129
500.000000	-134.473465	-0.264036	-61.332454	0.365946	-109.632566	0.075313	-117.317551	-0.098046
550.000000	-116.987171	0.306235	-49.880910	-0.007431	-108.043635	-0.485560	-119.034523	0.308136
600.000001	-120.069019	0.353306	-50.905410	-0.012111	-108.271161	-0.047574	-127.101827	-0.359544
650.000001	-121.434798	-0.199572	-65.705172	-0.274595	-108.083230	-0.382753	-125.123136	-0.156831
700.000001	-131.650006	0.135858	-58.053167	0.084050	-110.427200	0.432156	-121.451916	-0.292312
750.000001	-121.351233	0.140178	-57.600878	-0.066767	-121.392234	-0.456974	-118.853172	-0.233468
800.000001	-121.653253	0.150239	-62.580173	0.436686	-121.169353	0.376928	-125.725720	-0.186489
850.000001	-127.686738	0.176000	-55.880141	-0.264735	-113.776459	-0.045873	-142.156706	-0.171671
900.000001	-117.568452	-0.270058	-65.975927	-0.263533	-120.291024	0.059543	-122.566213	0.427970
950.000001	-128.430979	-0.477429	-64.890890	-0.235465	-112.782037	0.009614	-121.788152	-0.141907
1000.000001	-124.320875	0.492546	-54.919100	0.235066	-112.893609	-0.351400	-126.001281	-0.319015
1050.000001	-119.254252	0.075864	-61.170331	-0.274978	-117.962459	0.274076	-119.333119	-0.218160
1100.000001	-127.280531	0.464674	-57.433366	-0.017908	-121.574949	0.275750	-140.515775	0.005427
1150.000001	-124.617661	0.079472	-61.244747	-0.023140	-115.233716	0.255331	-119.141335	-0.116342
1200.000001	-118.506749	-0.209310	-64.117759	0.080766	-113.665065	-0.342289	-122.848012	0.121004
1250.000001	-114.405822	0.172077	-59.428577	-0.399290	-122.381321	-0.148221	-123.373491	0.371585
1300.000001	-121.318415	0.414015	-63.804479	0.168179	-120.190614	-0.241480	-139.169693	-0.433059
1350.000001	-132.283166	-0.418390	-60.830656	0.413942	-124.061234	0.164244	-130.937377	0.266437
1400.000001	-117.602151	0.483318	-61.445670	0.206900	-115.852119	0.385612	-125.946214	-0.265533
1450.000001	-132.352657	-0.388035	-63.342266	-0.100488	-117.613756	0.070575	-119.086497	0.017911
1500.000001	-118.173291	0.289324	-73.125149	-0.222633	-114.923148	0.250366	-128.760517	0.181285
1550.000001	-121.790557	0.042984	-66.083716	0.443599	-117.030766	0.499022	-121.289817	0.151714
1600.000001	-123.609948	-0.026774	-65.248097	-0.103231	-128.988828	0.161037	-123.282578	0.147135
1650.000001	-124.586775	-0.015422	-63.545633	-0.118903	-121.622647	-0.074527	-127.032421	0.040321
1700.000002	-132.709776	0.300088	-60.833057	-0.010160	-117.124422	0.243076	-123.518637	0.186208
1750.000002	-121.052664	0.356817	-67.781651	0.411707	-121.530142	-0.495599	-118.352478	-0.436085
1800.000002	-132.601628	-0.357100	-62.403799	-0.053113	-130.974593	-0.403180	-117.726879	-0.294399
1850.000002	-128.616119	-0.199119	-62.333147	-0.135753	-120.698632	-0.371408	-127.678119	-0.182933
1900.000002	-122.869877	0.455353	-67.025951	0.412797	-117.211765	-0.335096	-118.354266	-0.352127
1950.000002	-117.397130	0.485282	-67.979054	-0.379128	-114.062306	-0.230719	-125.564876	-0.481999
2000.000002	-123.846182	-0.466362	-63.559976	-0.475524	-124.031145	-0.298330	-119.303966	-0.415320
2050.000002	-122.996499	0.397348	-73.450830	0.166223	-121.980119	0.298098	-121.837351	-0.382104
2100.000002	-130.085426	0.114008	-68.267459	0.194666	-113.775769	0.202956	-123.670522	0.358790
2150.000002	-121.256919	-0.300281	-73.216934	0.015375	-114.567942	-0.229797	-122.644888	0.003587
2200.000002	-134.830960	-0.196702	-64.034757	-0.091065	-116.572888	-0.013620	-126.465034	-0.397480
2250.000002	-125.122245	0.475790	-73.109162	0.374266	-122.632616	0.151375	-120.027303	-0.491642
2300.000002	-124.430395	-0.124304	-64.798127	-0.296467	-130.103883	-0.180192	-128.916943	-0.267258
2350.000002	-123.086027	-0.366992	-69.469887	-0.198017	-127.744118	0.279104	-119.936380	-0.386225
2400.000002	-125.650138	0.427689	-64.093151	-0.124251	-135.524081	0.009997	-121.231022	-0.132341
2450.000002	-37.099405	-0.206878	-11.572969	0.426016	-109.985881	0.430528	-121.512577	0.460212
2500.000002	-122.370298	-0.101002	-76.115357	-0.474365	-122.734106	0.349496	-121.027771	0.103502
2550.000002	-122.973176	0.148580	-68.895191	-0.447928	-116.181295	-0.305179	-128.994968	-0.145411
2600.000002	-123.283616	0.242184	-66.877889	-0.310934	-116.671205	0.014472	-128.038046	-0.062674
2650.000002	-121.754136	-0.344201	-69.163556	-0.173838	-130.698375	0.251321	-125.289232	0.213422
2700.000002	-122.460680	-0.077677	-73.736815	0.195969	-127.135909	-0.122328	-117.124060	-0.400235
2750.000002	-126.667142	-0.458350	-59.774516	-0.333601	-118.978533	-0.413013	-115.192070	0.414018
2800.000002	-121.812739	-0.185629	-67.268424	0.108118	-114.396366	0.236312	-122.481567	-0.022817
2850.000003	-129.011316	0.354415	-67.348101	-0.365948	-128.066667	-0.414367	-123.598479	0.445846
2900.000003	-127.428858	-0.323655	-78.953077	0.426782	-118.926680	-0.370759	-132.728856	-0.218359
2950.000003	-120.784921	-0.470731	-70.388472	0.356926	-120.215965	-0.274616	-133.444057	0.442766
3000.000003	-128.688901	0.075257	-69.061440	-0.138521	-132.404552	0.490364	-120.951686	-0.075569
3050.000003	-127.734278	0.497800	-64.659968	-0.066782	-113.773390	0.270394	-124.180316	0.248054
3100.000003	-123.568995	-0.192752	-68.052897	-0.182210	-120.531371	0.077849	-118.670369	-0.340349
3150.000003	-119.378083	0.338997	-70.554567	-0.481942	-131.224810	-0.213249	-132.719742	0.197299
3200.000003	-121.317082	-0.044713	-80.330481	0.120473	-121.119943	-0.146226	-121.504647	0.255695
3250.000003	-124.828905	-0.297103	-63.488373	0.072063	-122.494194	0.257116	-127.574311	0.230556
3300.000003	-115.738905	0.276181	-71.527634	0.289434	-114.406969	0.278773	-116.110797	0.392870
3350.000003	-122.563727	-0.410513	-74.084797	0.111161	-114.974127	0.049947	-119.894300	-0.017161
3400.000003	-119.752235	0.471080	-67.109645	-0.071617	-126.422148	-0.021247	-119.291613	0.160104
3450.000003	-120.097316	0.407613	-64.060795	-0.289879	-135.709767	-0.327135	-124.432741	-0.346321
3500.000003	-123.285082	0.303880	-68.453297	-0.055954	-114.451844	0.085402	-127.824104	0.439604
3550.000003	-120.937079	0.037556	-76.007048	0.485956	-131.196859	-0.061298	-127.787693	-0.468150
3600.000003	-134.262205	0.369244	-69.579624	-0.325875	-123.214614	0.354946	-121.503144	-0.093406
3650.000003	-124.297399	-0.116409	-65.156728	0.264603	-116.284529	0.106904	-125.396728	0.308515
3700.000003	-125.193033	0.044341	-73.248068	-0.324123	-118.461692	-0.060211	-119.370984	0.336653
3750.000003	-116.388600	0.370169	-64.639389	-0.271001	-133.413827	0.055087	-120.020572	-0.376294
3800.000003	-120.745090	-0.131673	-67.134333	-0.494927	-120.676825	0.234243	-120.386281	0.303287
3850.000003	-118.591520	0.133089	-71.518795	-0.248976	-127.260376	0.097105	-123.443533	0.002054
3900.000003	-130.953864	-0.491281	-65.248025	-0.081838	-121.298173	-0.038375	-127.730851	-0.018356
3950.000003	-118.996697	-0.217291	-67.279068	0.389245	-117.654912	-0.432591	-119.118868	0.305307
4000.000004	-122.093795	0.151397	-85.628407	-0.218085	-121.426062	-0.496865	-125.970593	0.450894
4050.000004	-129.117039	0.271059	-66.489488	0.164561	-123.921753	0.487228	-124.736637	-0.225799
4100.000004	-125.719356	0.306610	-74.132212	-0.418303	-121.265254	0.436246	-128.602455	0.185815
4150.000004	-120.309005	0.453395	-64.421234	-0.352565	-128.685756	0.288662	-127.213171	0.404987
4200.000004	-122.509210	-0.146691	-71.420527	0.466855	-123.623457	-0.496341	-121.658006	-0.142502
4250.000004	-122.472443	0.361106	-76.949471	-0.146418	-124.218054	-0.223874	-126.552708	0.393263
4300.000004	-119.913737	0.150441	-67.559040	0.445066	-120.125104	-0.258494	-128.005500	0.280870
4350.000004	-125.672194	0.374180	-77.979810	-0.238108	-122.581501	0.165614	-121.429492	-0.444075
4400.000004	-118.349401	0.227088	-66.920103	0.155615	-119.898943	0.212663	-126.734975	0.103674
4450.000004	-141.121771	0.234818	-77.420124	0.495549	-121.075746	-0.268479	-117.799821	0.165607
4500.000004	-127.201253	-0.076747	-75.607840	0.079303	-134.055049	0.160704	-118.347079	0.137795
4550.000004	-114.447428	-0.413201	-71.502784	0.085229	-129.559004	0.199529	-116.305483	0.139649
4600.000004	-125.901253	0.369356	-75.760699	0.303699	-127.495164	0.485288	-120.138374	0.314003
4650.000004	-116.450098	0.350192	-65.901961	-0.052324	-117.920796	0.201018	-131.745444	-0.017680
4700.000004	-128.949656	-0.394342	-63.525790	0.451016	-115.134714	0.398474	-121.849501	-0.175052
4750.000004	-122.032828	-0.005942	-64.099824	0.343521	-115.861764	0.067600	-122.467429	-0.446272
4800.000004	-118.165546	-0.260443	-74.293888	0.008258	-127.238436	-0.181607	-124.368768	-0.448132
4850.000004	-119.308377	-0.165305	-70.745693	0.448334	-123.930678	-0.134460	-119.019298	0.133151
4900.000004	-121.140141	-0.434794	-70.962377	-0.175152	-134.778905	-0.237235	-115.405858	-0.059210
4950.000004	-123.005142	-0.117591	-75.006767	-0.416697	-118.051248	0.225756	-131.082622	-0.487210
5000.000004	-124.722301	0.173760	-70.744836	0.010890	-121.161891	-0.011108	-115.105866	0.221065
5050.000004	-130.365749	-0.429389	-68.003609	0.096529	-132.970630	0.479316	-125.976590	0.081268
5100.000005	-121.071348	-0.155047	-71.966849	0.380919	-128.010483	0.154362	-124.498752	-0.282756
5150.000005	-131.994474	0.470150	-77.835605	0.178495	-125.588343	0.004916	-124.065082	-0.418478
5200.000005	-121.739130	-0.397584	-75.204565	-0.032833	-127.612305	0.389417	-122.931146	0.357105
5250.000005	-133.930786	0.255968	-74.569957	-0.459073	-121.229049	0.306138	-118.766050	-0.258742
5300.000005	-120.933846	0.097471	-72.519782	-0.419795	-129.129043	-0.028912	-121.791521	0.494592
5350.000005	-123.987256	-0.329279	-91.223215	0.041823	-126.299710	-0.039459	-122.988086	-0.196129
5400.000005	-120.236336	-0.035300	-74.072701	0.169125	-127.711595	0.227304	-122.186318	0.391812
5450.000005	-123.047748	-0.330364	-66.648366	-0.271122	-124.012099	0.188526	-128.838698	-0.339200
5500.000005	-136.262807	0.319721	-70.962788	-0.283976	-115.683870	0.026474	-119.214764	-0.297367
5550.000005	-120.897990	-0.466189	-67.268170	0.039336	-130.816427	0.107521	-132.420702	-0.156588
5600.000005	-117.884627	-0.061712	-71.045731	0.230695	-126.960873	0.011175	-123.656404	-0.438644
5650.000005	-128.675292	-0.343380	-72.718390	0.297423	-118.322759	0.442475	-121.428084	0.498215
5700.000005	-115.844655	0.286203	-77.477082	-0.327493	-117.061043	0.139321	-127.366508	0.320286
5750.000005	-127.838416	-0.473621	-77.163978	0.336119	-138.525637	0.005909	-124.596067	0.211950
5800.000005	-119.608613	0.110350	-70.383084	-0.061500	-125.067746	-0.302136	-117.234219	-0.176449
5850.000005	-123.480600	-0.223342	-72.006445	-0.330270	-122.063850	0.108622	-134.727258	0.255830
5900.000005	-124.936169	0.107878	-93.861091	-0.333599	-120.727118	-0.131963	-126.393461	-0.386244
5950.000005	-123.372138	-0.055918	-78.896167	-0.385284	-125.223812	0.404862	-119.733008	0.127211
6000.000005	-119.502202	0.014404	-81.437505	0.283977	-125.825570	0.401530	-138.970708	-0.395927
6050.000005	-125.240854	0.221681	-71.877873	-0.400493	-125.957767	0.083506	-121.256926	-0.048097
6100.000005	-124.476856	0.203722	-71.858607	-0.187215	-125.029923	0.048361	-124.918855	0.175251
6150.000005	-144.205671	0.024034	-76.050222	0.268480	-128.100090	0.025468	-128.305013	-0.340676
6200.000005	-126.869659	-0.094278	-71.837340	-0.082668	-128.449690	0.273969	-116.677342	0.301145
6250.000006	-125.698436	0.332858	-79.203923	-0.423675	-128.140432	-0.445344	-122.710208	0.255954
6300.000006	-122.013006	-0.041498	-80.238344	0.179855	-125.030650	-0.106549	-123.567960	-0.002813
6350.000006	-117.080722	-0.490065	-69.494558	-0.397400	-121.601760	0.427584	-126.676390	-0.459390
6400.000006	-116.604201	0.184162	-76.406952	-0.069905	-122.558425	0.103856	-120.037379	0.272713
6450.000006	-128.325957	-0.429769	-67.769950	0.178232	-142.377770	0.055926	-132.848720	0.009521
6500.000006	-118.688955	-0.439249	-80.715548	0.059692	-124.125978	0.223290	-118.776717	-0.331585
6550.000006	-121.487455	0.340229	-71.913175	0.302705	-124.222985	-0.239588	-124.054873	0.182608
6600.000006	-121.511237	0.018230	-67.103086	-0.409530	-129.876964	-0.233694	-126.395592	0.284409
6650.000006	-126.592190	-0.412545	-74.791200	0.496437	-124.638822	0.121124	-126.057577	-0.078320
6700.000006	-118.372193	-0.396236	-75.384160	-0.376898	-117.714364	-0.088942	-119.470804	0.306716
6750.000006	-123.552021	0.409538	-83.305236	-0.039172	-131.505693	-0.283023	-114.895385	-0.469554
6800.000006	-122.767454	-0.263989	-95.606395	-0.292726	-120.082162	0.095108	-120.774470	0.023995
6850.000006	-137.574845	-0.091104	-77.894773	0.035691	-125.384157	-0.066628	-129.281962	-0.256520
6900.000006	-127.907909	-0.146899	-74.835893	0.247607	-121.659017	-0.472455	-121.795589	0.205742
6950.000006	-135.091871	0.261514	-68.349565	0.108967	-124.448864	-0.373034	-118.594218	0.202160
7000.000006	-121.371224	-0.459116	-73.588362	0.151721	-118.086942	-0.458842	-124.681180	0.054730
7050.000006	-123.119513	-0.065743	-67.108820	0.082510	-121.344755	0.361903	-126.806695	0.255964
7100.000006	-118.670990	0.263184	-73.399110	0.426842	-120.811801	0.147194	-134.773240	0.022693
7150.000006	-128.166257	0.200021	-74.247633	-0.319635	-117.496005	0.300820	-123.647900	0.225096
7200.000006	-123.331845	-0.450311	-80.153961	0.304816	-125.702710	-0.006272	-129.075039	0.246366
7250.000006	-123.564734	-0.491261	-82.340282	0.215278	-121.635511	0.495815	-126.143257	0.453279
7300.000006	-129.427671	0.301315	-70.942757	0.053650	-142.676609	-0.053428	-123.148958	0.052917
7350.000007	-99.544435	0.411878	-67.025085	0.043046	-129.385175	0.425040	-125.415541	0.255528
7400.000007	-117.596519	0.095026	-75.095116	0.388562	-127.318129	-0.076570	-120.872416	-0.404905
7450.000007	-116.550330	-0.176791	-73.817567	-0.244861	-119.735160	-0.108266	-133.605406	-0.111714
7500.000007	-121.016332	-0.127800	-78.914441	-0.306615	-122.059122	-0.082432	-119.629682	-0.345837
7550.000007	-120.380967	-0.144065	-69.227756	0.441688	-117.492038	0.319949	-136.674717	-0.200039
7600.000007	-126.349017	0.015734	-78.105426	0.116283	-118.183180	-0.469087	-120.701854	-0.040772
7650.000007	-120.687442	-0.291752	-79.782836	-0.456613	-119.226474	0.244107	-128.893597	0.249759
7700.000007	-143.396070	-0.076676	-70.724838	0.111756	-133.173142	0.174769	-123.361429	-0.057426
7750.000007	-124.435165	0.047159	-77.415295	0.110867	-128.814734	0.197745	-122.246484	0.371803
7800.000007	-132.665119	-0.224407	-74.022729	-0.181466	-131.168780	0.373605	-122.495809	-0.338524
7850.000007	-121.606007	0.090753	-90.611699	-0.325837	-128.107185	-0.048915	-119.932472	0.263808
7900.000007	-125.626906	0.110269	-69.082031	-0.463472	-117.620169	0.360554	-124.566461	-0.096787
7950.000007	-119.016188	-0.196088	-74.031113	0.187588	-115.332199	-0.294366	-120.948208	-0.292064
8000.000007	-116.849508	-0.094981	-75.448616	-0.473003	-119.175257	-0.233513	-129.917551	-0.259495
8050.000007	-121.353053	-0.079821	-73.352943	-0.172107	-120.332664	0.197497	-122.336040	0.191119
8100.000007	-119.605638	-0.045695	-69.106582	-0.461156	-120.312525	-0.271841	-133.773416	0.388412
8150.000007	-122.259784	0.296159	-71.908742	-0.350383	-124.948360	0.284434	-120.044035	0.238724
8200.000007	-134.946480	-0.087383	-69.757313	0.479683	-129.764471	-0.175714	-116.223769	-0.435633
8250.000007	-118.025036	0.340882	-74.847371	0.165399	-126.060600	-0.369307	-121.331419	0.419193
8300.000007	-125.693405	0.266790	-77.208996	-0.272706	-134.058330	0.313676	-123.019500	-0.008000
8350.000007	-121.813183	-0.107769	-72.143843	-0.298406	-122.803819	0.128151	-122.019554	-0.256936
8400.000007	-119.845814	-0.105131	-80.562646	-0.319932	-131.023708	0.002305	-129.753874	0.220017
8450.000007	-125.908000	0.269331	-73.585724	-0.495519	-120.340198	-0.047847	-116.553919	0.123377
8500.000008	-124.331226	-0.128729	-93.422907	-0.036511	-117.880807	-0.326393	-118.472670	-0.217777
8550.000008	-119.271492	0.369618	-75.368410	0.465272	-121.039826	0.485178	-125.245580	-0.420295
8600.000008	-128.803283	0.388919	-99.510095	0.316742	-123.428679	0.184466	-126.917305	0.393355
8650.000008	-124.389636	0.214621	-89.335386	0.379067	-119.859567	-0.106163	-118.040718	0.394582
8700.000008	-125.758354	-0.016618	-81.951858	-0.120652	-123.139798	0.254329	-123.027028	-0.346911
8750.000008	-137.844151	-0.411971	-82.398017	-0.112371	-120.215710	0.277527	-120.503258	0.404660
8800.000008	-116.735882	-0.327091	-72.976502	-0.391904	-122.590325	0.277196	-124.385840	0.051750
8850.000008	-134.940531	0.247348	-76.188483	-0.495569	-136.456159	0.493276	-119.822969	0.210035
8900.000008	-142.233365	0.211332	-70.277761	-0.141876	-127.385009	0.167887	-120.524373	0.164084
8950.000008	-120.525002	0.101130	-74.407926	0.167144	-121.107565	-0.477036	-122.014198	0.361554
9000.000008	-122.896067	-0.455928	-82.731865	0.144319	-120.082706	0.217004	-127.538421	0.326254
9050.000008	-126.376620	0.115133	-78.592800	0.052847	-117.382166	0.057385	-124.387113	-0.219318
9100.000008	-119.302047	0.354598	-84.253907	-0.171350	-117.215920	0.426681	-153.536049	-0.405273
9150.000008	-117.447927	-0.261239	-74.559600	0.118297	-124.854526	0.246548	-124.218581	0.316428
9200.000008	-134.042646	-0.165612	-78.864516	-0.342523	-121.482840	0.017709	-121.414415	-0.075189
9250.000008	-141.850816	0.112846	-73.731765	0.291024	-119.222695	0.420471	-127.998832	-0.446170
9300.000008	-123.966673	0.120573	-82.580815	-0.431390	-126.059456	0.257941	-127.493085	-0.109176
9350.000008	-117.642332	-0.437058	-76.700421	0.061140	-120.100745	0.332014	-132.573215	-0.384570
9400.000008	-124.006246	0.224687	-87.378300	0.375301	-124.587440	0.059199	-132.552375	0.097055
9450.000008	-131.701313	0.090807	-74.335611	0.189599	-118.830043	0.491754	-119.246206	0.196577
9500.000008	-119.129507	0.237553	-76.043755	0.045041	-122.017365	-0.226720	-124.964110	-0.392143
9550.000008	-119.188406	0.342075	-69.647719	0.228894	-121.139254	0.250199	-125.329680	0.252415
9600.000009	-121.148992	-0.449092	-85.554835	-0.425985	-115.946711	-0.300552	-120.674316	-0.337236
9650.000009	-132.969507	0.311433	-84.573433	0.121270	-114.870272	0.241374	-117.558655	-0.315938
9700.000009	-117.922373	-0.436528	-90.831150	0.458507	-122.743000	-0.371852	-118.618346	-0.075469
9750.000009	-119.749671	-0.116593	-74.993313	0.079450	-126.871280	-0.051801	-121.958381	-0.106170
9800.000009	-102.707442	-0.346097	-69.920121	-0.269581	-122.569173	0.285990	-122.693632	0.025592
9850.000009	-118.823076	0.011186	-82.910337	0.300280	-121.051415	0.302431	-120.128766	-0.169927
9900.000009	-120.929688	-0.467012	-75.718697	0.274324	-116.369485	0.236669	-117.498944	-0.488706
9950.000009	-117.054541	0.241820	-83.745703	-0.308886	-124.221898	-0.158361	-135.187383	-0.272032
10000.000009	-130.910420	0.067442	-85.975892	0.137130	-116.700472	0.212212	-119.815156	0.286567
10050.000009	-130.110967	0.028577	-71.935541	0.458655	-122.292143	0.354702	-133.277113	0.298032
10100.000009	-119.334413	-0.484284	-76.450275	0.144256	-125.731501	-0.402985	-120.334852	-0.093862
10150.000009	-126.335567	-0.427070	-76.600157	0.439494	-124.103808	-0.276817	-132.030807	0.310344
10200.000009	-127.011492	0.403249	-80.986749	-0.107826	-122.485828	-0.315448	-121.647311	0.375386
10250.000009	-128.418809	0.440992	-71.702137	-0.490958	-119.945530	-0.107415	-124.022168	0.470370
10300.000009	-122.393273	-0.281359	-72.356187	-0.435873	-121.851061	0.156244	-124.068435	0.013089
10350.000009	-126.103724	-0.146372	-71.302476	-0.171577	-121.407643	0.173205	-118.428435	0.083834
10400.000009	-130.006941	-0.052644	-76.332244	-0.080749	-148.873070	-0.184659	-125.596838	-0.418282
10450.000009	-117.351227	-0.258025	-73.445065	-0.164735	-123.415994	0.094173	-128.700243	-0.086580
10500.000009	-121.890260	-0.394090	-70.442876	0.274483	-119.277777	-0.363819	-127.232491	-0.483964
10550.000009	-124.650589	0.200670	-86.585608	0.300391	-121.041976	-0.021661	-125.674615	-0.114855
10600.000009	-124.169357	-0.268885	-88.865174	0.320794	-123.592605	0.012028	-117.379672	0.073266
10650.000009	-127.183607	0.252060	-77.369769	-0.092109	-127.045280	-0.419881	-122.562359	0.041472
10700.000009	-121.858689	0.065623	-83.052389	-0.180605	-135.089222	0.462567	-119.716730	-0.345784
10750.000010	-119.145853	0.333020	-76.646138	-0.352236	-124.015992	0.236663	-127.377061	0.030834
10800.000010	-118.579414	0.268056	-79.268648	-0.045049	-122.593027	0.042838	-134.214559	-0.365677
10850.000010	-138.592463	0.090793	-85.158217	0.154978	-134.344573	0.425037	-119.933632	0.422393
10900.000010	-125.015504	0.014626	-77.454597	0.237902	-120.646146	-0.237650	-116.410014	0.153098
10950.000010	-123.632971	-0.171613	-76.849640	0.158551	-117.992600	-0.089131	-119.002542	-0.203754
11000.000010	-122.066334	0.438281	-73.425018	-0.269365	-119.572849	0.232910	-115.669131	-0.396250
11050.000010	-124.279538	0.391495	-77.925266	0.044546	-122.616947	-0.334925	-128.141168	0.327720
11100.000010	-122.231751	0.202639	-75.876677	0.497519	-120.826143	-0.284532	-124.676069	0.142712
11150.000010	-118.636831	0.213544	-71.148536	0.113383	-121.774038	-0.455221	-126.640057	0.106578
11200.000010	-117.092729	-0.174671	-72.657366	0.449908	-118.960151	-0.089021	-119.004072	0.470105
11250.000010	-118.343454	-0.472250	-76.403164	0.422313	-124.462332	0.374005	-126.602369	0.399512
11300.000010	-118.928398	0.441819	-75.008235	0.211940	-124.683698	0.166576	-128.960393	0.070887
11350.000010	-135.397106	0.461893	-85.483805	-0.141799	-126.582373	-0.025722	-138.654648	0.330256
11400.000010	-122.851620	0.229715	-81.006597	0.394309	-123.939785	-0.134917	-122.405919	-0.204746
11450.000010	-122.015425	0.359325	-71.778575	-0.172371	-120.339489	0.008471	-128.301662	0.449743
11500.000010	-118.804106	-0.100995	-85.669607	-0.436546	-118.990012	0.456130	-137.162524	0.452170
11550.000010	-112.792815	0.206436	-81.452342	-0.365933	-124.495934	-0.000492	-123.265322	0.194394
11600.000010	-116.910590	-0.427719	-73.306862	-0.310382	-117.638474	-0.483175	-117.290959	-0.393752
11650.000010	-122.606944	-0.172303	-75.890141	-0.134842	-124.491591	-0.115648	-115.685665	-0.190430
11700.000010	-118.699692	0.484831	-81.838741	-0.009567	-123.698050	0.082277	-126.994328	-0.233757
11750.000010	-118.066136	-0.142199	-79.196169	0.383481	-122.805725	0.109505	-122.384088	0.086553
11800.000010	-125.195232	0.352362	-71.315582	-0.130668	-118.898692	0.034523	-117.621444	0.226800
11850.000010	-118.855964	-0.024035	-82.367488	0.140296	-121.169136	-0.053495	-131.031555	-0.093950
11900.000011	-121.977843	0.040358	-73.162850	0.367716	-117.116038	0.139009	-116.752008	0.129784
11950.000011	-119.112081	0.162128	-81.393429	-0.160346	-119.835923	-0.080853	-122.967954	0.263030
12000.000011	-120.723359	-0.087972	-88.162208	0.252322	-123.107175	0.060359	-126.215117	-0.226740
12050.000011	-122.148953	0.110232	-75.022505	-0.115811	-122.424794	0.216101	-132.836898	0.438906
12100.000011	-127.016437	0.171036	-83.321344	0.207351	-123.797151	0.175374	-129.461893	-0.464286
12150.000011	-130.774675	0.082643	-74.137687	-0.217464	-131.963536	0.283876	-118.938684	0.221731
12200.000011	-121.737818	-0.280530	-76.087463	0.166406	-120.196295	-0.139339	-122.726156	-0.433297
12250.000011	-103.162185	0.451226	-73.745386	-0.041076	-122.451323	0.420571	-121.290195	0.397399
12300.000011	-118.292567	-0.150399	-83.055103	-0.238924	-118.166043	-0.172129	-123.167067	-0.323611
12350.000011	-114.327986	-0.241701	-81.725498	-0.426947	-116.131407	-0.239930	-130.863259	0.335351
12400.000011	-124.656269	0.152474	-76.854481	-0.464807	-119.994434	-0.187600	-130.957910	0.047719
12450.000011	-133.851875	-0.401611	-82.425693	-0.302501	-121.726290	-0.028991	-133.747284	0.320578
12500.000011	-125.461506	0.469928	-75.719623	0.245732	-119.300988	0.446230	-122.454000	0.329133
12550.000011	-121.306951	0.095579	-76.328678	0.152451	-123.436828	0.135195	-118.911213	-0.157867
12600.000011	-118.548137	0.009343	-85.175778	0.086010	-128.808756	-0.428315	-119.019633	-0.144553
12650.000011	-117.290839	-0.422681	-73.764405	-0.498032	-121.023382	-0.324166	-118.781036	-0.403656
12700.000011	-123.969156	0.441202	-78.758447	0.177475	-127.139341	0.087629	-123.037022	-0.118798
12750.000011	-115.851558	0.271509	-79.202011	0.090277	-131.942302	-0.023923	-116.929288	-0.466191
12800.000011	-119.804912	-0.492118	-78.269905	-0.356167	-117.187979	0.161954	-124.363596	-0.201602
12850.000011	-116.103413	-0.464912	-80.622473	0.271418	-120.166019	-0.254709	-122.124705	-0.229158
12900.000011	-127.663322	0.472226	-85.101253	0.480268	-123.773374	-0.280621	-130.009661	-0.074553
12950.000011	-124.134923	0.199288	-79.743933	0.309827	-124.454637	-0.450162	-122.487576	0.388633
13000.000012	-122.534480	-0.489472	-78.859218	0.084348	-118.413806	0.460226	-117.842808	-0.395172
13050.000012	-116.555762	-0.092055	-76.003994	0.084017	-126.374130	-0.193573	-117.171100	-0.254151
13100.000012	-118.110675	-0.226773	-83.676984	-0.330791	-125.955390	-0.488830	-118.486022	-0.382187
13150.000012	-117.756633	-0.235774	-75.751747	0.292216	-117.889448	-0.276676	-118.419853	-0.259217
13200.000012	-123.874125	-0.043788	-87.686883	-0.084963	-114.594541	-0.110913	-126.905829	-0.316540
13250.000012	-126.306963	0.085241	-75.356336	0.212939	-127.448110	0.342568	-126.562252	-0.137244
13300.000012	-115.784943	-0.378506	-76.248437	0.402644	-133.073792	0.460847	-123.393345	-0.404955
13350.000012	-130.642664	-0.389205	-71.530904	-0.445609	-121.696144	-0.252119	-122.507606	-0.279557
13400.000012	-117.355460	-0.171859	-74.733372	-0.366221	-114.922162	-0.233926	-119.862930	-0.206586
13450.000012	-138.174863	0.287526	-80.712600	0.121771	-126.122978	-0.077170	-119.070235	0.065278
13500.000012	-120.937885	0.172183	-81.908454	0.162189	-115.316627	0.270214	-120.622826	0.251499
13550.000012	-125.056665	0.200360	-76.813767	0.371120	-120.615361	-0.316680	-122.369536	-0.301935
13600.000012	-123.827698	-0.385012	-75.367861	-0.451188	-121.586943	-0.282887	-115.588837	-0.449613
13650.000012	-121.754851	0.282253	-79.323261	-0.044057	-118.145409	0.464430	-122.644612	0.286284
13700.000012	-128.399729	0.205124	-75.263269	-0.453607	-113.803623	0.148487	-120.264739	0.151291
13750.000012	-123.083356	-0.104716	-79.306037	0.452669	-123.199662	-0.318458	-128.806102	-0.155229
13800.000012	-119.426260	-0.485215	-81.494347	-0.379413	-122.818240	0.190390	-123.533003	-0.137854
13850.000012	-120.005467	-0.351034	-77.874988	-0.274722	-120.013520	-0.019303	-118.983804	-0.168542
13900.000012	-124.268609	-0.091683	-81.533120	-0.228676	-123.604925	0.058211	-120.516729	0.131886
13950.000012	-123.910545	0.323299	-75.153860	0.289518	-115.709573	0.230091	-114.021025	0.255719
14000.000012	-116.031158	0.425201	-74.052517	0.448124	-114.867652	0.437736	-126.280222	0.424319
14050.000012	-116.645659	0.096811	-74.133604	0.495007	-113.314641	0.092986	-112.066205	0.127830
14100.000012	-118.537454	0.304519	-76.459240	-0.124712	-116.859945	0.225888	-129.913929	-0.321422
14150.000013	-119.234980	-0.368616	-75.390371	-0.339210	-119.819233	-0.359958	-119.281259	-0.294723
14200.000013	-122.407282	-0.125502	-75.444546	0.115492	-126.064101	-0.461501	-117.568635	-0.115522
14250.000013	-119.663375	0.091634	-81.308643	0.097281	-126.354876	0.127136	-121.246969	-0.064752
14300.000013	-123.381385	0.154864	-74.520020	-0.433612	-131.086422	-0.075466	-133.179615	-0.037612
14350.000013	-122.371196	0.221922	-77.308353	0.275892	-115.520499	0.115081	-125.665150	-0.162296
14400.000013	-129.259786	0.342770	-84.921242	-0.019000	-118.151751	0.467128	-126.824782	0.463767
14450.000013	-116.587539	0.166362	-74.509308	0.129413	-117.831927	0.194741	-123.478315	0.495648
14500.000013	-118.690503	-0.445936	-84.957124	-0.341969	-121.228829	-0.111165	-126.524812	-0.274317
14550.000013	-120.306359	0.183514	-78.493982	0.364807	-122.491490	0.179234	-114.175588	-0.011942
14600.000013	-116.902656	0.464497	-82.786795	-0.355224	-115.676525	0.326785	-112.927575	0.459608
14650.000013	-119.194371	-0.100999	-76.177760	-0.444347	-118.331530	-0.242086	-115.499665	-0.190353
14700.000013	-102.129631	-0.248305	-80.891993	-0.234923	-120.337631	0.157600	-127.993280	-0.106074
14750.000013	-119.358800	0.150289	-78.470491	-0.270857	-118.723180	0.377620	-118.249432	0.266604
14800.000013	-122.256884	-0.427071	-78.885757	0.380530	-123.975769	-0.302697	-117.022306	-0.365066
14850.000013	-118.106689	-0.157913	-77.357865	-0.431940	-115.978139	-0.311684	-116.290815	-0.368967
14900.000013	-125.821603	-0.420006	-75.268656	0.061887	-132.777272	0.291174	-120.874962	0.075382
14950.000013	-121.929339	-0.018219	-76.787536	0.374592	-120.137126	-0.296406	-122.477647	-0.488621
15000.000013	-120.713618	0.365135	-74.753175	0.208244	-123.732277	0.200237	-123.936331	0.374515
15050.000013	-118.819172	0.003370	-82.084379	0.466701	-122.795278	0.222577	-122.699031	-0.083852
15100.000013	-125.956898	0.460916	-83.305919	-0.436323	-119.766438	0.324108	-122.489934	0.397760
15150.000013	-116.518174	-0.012327	-71.641062	-0.151190	-121.630321	0.495026	-118.583321	-0.464191
15200.000013	-121.468107	0.136574	-78.135688	0.412777	-113.679750	-0.070545	-126.954411	0.283886
15250.000014	-126.368709	-0.413767	-74.352786	-0.121532	-124.418003	0.158950	-126.223169	0.294318
15300.000014	-125.972795	0.489493	-75.748834	0.099424	-124.698232	-0.198534	-122.823814	0.387457
15350.000014	-108.629703	-0.413090	-77.375538	0.012471	-118.762892	-0.391781	-119.058216	-0.417804
15400.000014	-116.753043	-0.075415	-83.945673	0.005430	-122.473931	0.020467	-139.287672	-0.277111
15450.000014	-117.801848	-0.398658	-73.575989	0.068660	-121.849858	-0.073058	-121.089979	-0.276176
15500.000014	-119.915293	-0.179914	-79.791722	0.059131	-127.008615	0.409092	-120.320280	-0.202690
15550.000014	-121.192806	0.406268	-83.472930	0.021205	-126.608789	0.087302	-118.371795	0.313665
15600.000014	-121.377739	-0.148905	-77.732634	0.444806	-120.689096	-0.186853	-116.390482	-0.244204
15650.000014	-118.159762	0.265211	-80.797666	0.226352	-128.358105	-0.127274	-120.916969	-0.142762
15700.000014	-120.071438	-0.490437	-82.180460	0.251705	-121.991962	0.423868	-129.679841	-0.253659
15750.000014	-125.356227	0.278787	-77.066213	0.356457	-122.687971	0.358019	-136.809161	-0.205664
15800.000014	-129.308079	-0.309123	-87.227294	-0.225433	-125.135046	0.253343	-118.990537	0.238486
15850.000014	-124.290151	-0.398293	-81.950882	0.409690	-126.380106	-0.059543	-121.198761	-0.196075
15900.000014	-121.617402	-0.178940	-84.523956	-0.424689	-121.136391	0.051114	-124.840072	0.108679
15950.000014	-129.677998	-0.251096	-77.166836	-0.373486	-122.773346	-0.449006	-120.989801	0.065886
16000.000014	-126.209904	0.443382	-75.393712	0.043749	-123.914660	-0.475877	-129.882203	-0.105453
16050.000014	-120.132347	0.445706	-93.774412	0.328972	-124.282415	0.273194	-122.823689	-0.386628
16100.000014	-121.345733	0.330183	-74.585537	0.386860	-120.935856	-0.375460	-132.982686	0.356365
16150.000014	-119.384516	0.426912	-87.090060	0.350458	-118.956325	-0.444890	-122.645330	-0.034275
16200.000014	-120.748718	-0.490311	-94.379147	-0.049385	-124.866349	-0.123352	-138.600381	-0.294689
16250.000014	-111.496722	-0.326884	-85.018121	-0.227230	-115.925755	-0.326224	-121.778047	-0.450040
16300.000014	-123.916393	-0.420036	-80.595713	0.209485	-126.092761	0.303074	-118.802950	-0.041160
16350.000014	-127.140165	0.172127	-78.657106	-0.008412	-122.530283	-0.060966	-117.478878	0.310130
16400.000015	-120.604665	0.108856	-78.677606	-0.135048	-120.208197	-0.454544	-131.555273	0.152670
16450.000015	-119.415988	-0.007743	-79.198578	-0.466296	-119.512480	0.109593	-116.668035	0.171530
16500.000015	-129.058519	0.226653	-79.000130	-0.040263	-127.200633	0.352548	-124.173366	0.272343
16550.000015	-132.239833	-0.481851	-84.276844	-0.299763	-123.585341	-0.147472	-132.050780	-0.256029
16600.000015	-128.691433	-0.287406	-80.626122	0.277330	-121.151904	-0.411734	-120.688248	-0.474533
16650.000015	-120.733689	-0.163945	-77.293628	-0.408364	-119.797086	0.406299	-131.697702	0.146634
16700.000015	-115.760996	0.056654	-79.804325	-0.218235	-118.902848	-0.294767	-125.396751	0.087002
16750.000015	-119.493086	0.349782	-77.257008	-0.168013	-115.705758	0.106812	-124.548633	0.131059
16800.000015	-122.536854	0.303443	-79.158696	-0.379043	-121.142174	-0.385110	-116.808560	0.495440
16850.000015	-117.009260	-0.400273	-90.035078	-0.020236	-126.195100	0.244575	-125.483793	0.268751
16900.000015	-125.907890	0.144753	-85.316758	0.148360	-124.048873	0.242835	-119.074648	0.010137
16950.000015	-118.493131	0.387667	-74.243132	0.209103	-122.534401	-0.052301	-120.081929	-0.033669
17000.000015	-121.795846	-0.253334	-89.586441	-0.258278	-131.609166	0.473393	-122.063780	0.232406
17050.000015	-122.345462	-0.059013	-80.087347	-0.153741	-117.885897	-0.101475	-121.151603	0.246344
17100.000015	-122.522590	-0.187308	-78.986339	0.188940	-117.796302	0.191661	-116.523283	0.252302
17150.000015	-107.783731	-0.479891	-82.049303	0.045583	-118.650819	0.401393	-127.306144	-0.122497
17200.000015	-117.374622	-0.275245	-76.580207	0.200592	-124.786601	-0.029239	-133.889726	-0.357017
17250.000015	-124.619122	0.487243	-77.622167	0.131056	-120.726711	-0.392883	-123.437099	-0.386659
17300.000015	-128.322081	-0.305258	-84.623555	-0.303541	-131.489998	0.234340	-131.378545	0.133401
17350.000015	-135.907452	0.472073	-76.218492	0.405354	-123.355677	0.087086	-139.502002	0.191091
17400.000015	-120.144179	0.114006	-78.329901	0.365765	-127.748807	-0.054952	-122.254829	0.208168
17450.000015	-127.186004	0.332484	-88.692833	0.435013	-120.534520	-0.405502	-129.094177	0.430813
17500.000016	-127.953053	-0.454388	-77.492184	-0.036295	-125.385966	-0.333110	-125.998176	-0.330918
17550.000016	-122.054878	-0.439360	-80.545483	0.130779	-136.449274	0.377730	-128.491603	-0.424233
17600.000016	-124.948647	-0.017485	-85.885067	0.015723	-124.215558	0.406486	-127.381470	0.203551
17650.000016	-122.084065	-0.491231	-79.032354	0.054295	-135.272580	-0.124614	-120.027361	-0.090422
17700.000016	-131.893643	0.274918	-74.090349	0.094237	-118.707362	0.121391	-131.583423	-0.016887
17750.000016	-118.404236	0.104365	-78.958207	0.482508	-125.812578	-0.016547	-127.691963	0.438961
17800.000016	-119.302450	0.078913	-76.385894	0.316416	-124.765152	0.012412	-125.448369	0.393189
17850.000016	-124.287078	0.108812	-84.891885	-0.494325	-129.744701	-0.308855	-117.915229	-0.494789
17900.000016	-124.716961	-0.248718	-81.918508	0.493232	-124.627013	0.478287	-115.730711	-0.270868
17950.000016	-121.907437	0.052946	-73.680050	-0.101721	-132.285398	-0.063536	-117.339008	-0.499214
18000.000016	-114.800826	0.042320	-88.770917	-0.249844	-127.308174	-0.252851	-126.555805	-0.098348
18050.000016	-120.668289	-0.083894	-74.790928	-0.315987	-124.607768	-0.011064	-119.159118	-0.176830
18100.000016	-118.388146	0.269759	-87.525634	0.339106	-125.675821	-0.306783	-118.706971	0.421351
18150.000016	-116.934727	0.356713	-83.916020	0.439024	-117.970782	-0.476492	-129.037642	0.352489
18200.000016	-127.232046	-0.185922	-86.277491	-0.244202	-130.111885	-0.494724	-119.907685	-0.026255
18250.000016	-117.570634	0.321078	-80.254029	-0.077547	-119.230399	0.355743	-124.966946	0.206789
18300.000016	-125.249121	-0.001737	-87.794258	0.268686	-114.051852	-0.044689	-120.432926	0.033153
18350.000016	-118.818488	0.333205	-88.226556	0.371270	-124.839637	-0.093694	-125.688366	0.266768
18400.000016	-120.284617	0.002288	-75.556165	0.036222	-119.771083	0.147871	-119.190557	0.177362
18450.000016	-118.562899	0.207776	-79.152993	-0.473095	-119.198547	-0.280795	-124.450032	0.117007
18500.000016	-123.118122	0.396687	-82.940698	0.124464	-119.234970	-0.373173	-115.800517	0.144021
18550.000016	-135.762948	-0.164421	-77.140494	-0.117425	-123.616155	0.422840	-115.923410	-0.393914
18600.000016	-130.212171	0.399278	-82.823519	-0.267998	-126.340395	0.331270	-136.896980	0.258289
18650.000017	-122.038723	0.190122	-77.516431	-0.230507	-116.413009	-0.469915	-124.887649	0.433295
18700.000017	-117.990367	0.168660	-99.037141	-0.444301	-125.444162	0.373968	-119.986652	0.101833
18750.000017	-123.493985	0.238755	-83.810073	-0.220309	-123.465070	-0.073915	-115.817568	0.030935
18800.000017	-124.320124	-0.150110	-86.172752	0.171733	-120.882043	-0.308740	-118.416635	0.438654
18850.000017	-124.567318	0.390812	-90.218471	-0.000666	-123.377125	0.292929	-122.908033	0.044561
18900.000017	-131.959916	-0.042589	-76.332237	0.012809	-119.051272	-0.028504	-122.097121	0.150118
18950.000017	-127.047571	0.348973	-82.811568	-0.161521	-123.354535	-0.045455	-120.170371	-0.134308
19000.000017	-121.938226	0.054538	-81.147271	-0.376592	-120.593305	0.135388	-134.636698	0.389067
19050.000017	-119.136516	-0.003352	-77.061758	0.114592	-127.412862	0.051470	-131.637626	0.106063
19100.000017	-136.362053	-0.491897	-84.870456	0.065005	-127.806569	0.287581	-133.660153	0.179200
19150.000017	-151.358850	0.414265	-75.740247	-0.344784	-126.588761	0.044409	-120.284403	-0.461372
19200.000017	-114.437609	-0.263789	-78.218116	0.020819	-124.875624	0.116655	-124.593049	0.355690
19250.000017	-121.419717	-0.475356	-86.469788	0.246764	-116.180297	-0.249567	-117.786069	-0.183352
19300.000017	-123.934493	-0.277743	-83.859707	-0.041245	-120.425489	0.041505	-132.133629	-0.408408
19350.000017	-118.922754	-0.005557	-85.391937	-0.369857	-121.051699	0.336348	-127.513140	0.055122
19400.000017	-134.606628	-0.295660	-81.447182	0.297592	-117.557483	-0.113327	-123.154609	-0.137629
19450.000017	-121.751126	-0.333141	-81.499678	-0.277977	-123.145541	0.459157	-126.145493	-0.147112
19500.000017	-125.293008	0.004077	-88.200723	-0.021174	-120.094956	-0.298770	-122.542070	-0.049330
19550.000017	-119.655099	0.226075	-77.484420	0.197266	-119.334318	-0.132622	-126.641554	-0.217328
19600.000017	-109.744416	-0.241042	-81.899528	-0.252053	-122.512022	-0.346150	-118.280892	-0.456087
19650.000017	-120.425408	-0.272228	-82.853743	-0.144948	-128.265172	0.182716	-116.655937	-0.323118
19700.000017	-118.974356	-0.246393	-71.922776	-0.497427	-120.273428	-0.220554	-120.336650	-0.236706
19750.000017	-120.382395	0.101217	-80.307267	0.049765	-122.376985	0.027833	-133.832341	0.343651
19800.000018	-135.855024	-0.321613	-76.118064	-0.355448	-133.493528	0.104940	-136.697575	0.352346
19850.000018	-127.318892	-0.265684	-80.767734	-0.092703	-126.512126	-0.101475	-121.608700	-0.246285
19900.000018	-116.023624	0.201083	-76.937698	-0.157251	-117.889503	-0.030186	-133.760503	0.079629
19950.000018	-145.601257	0.164988	-90.563430	0.240004	-128.526945	-0.419387	-122.199807	-0.294549
20000.000018	-118.772842	0.265073	-83.714625	-0.308452	-120.853518	-0.279598	-136.749675	0.130040
